timestamps,TP9,AF7,AF8,TP10,Right AUX
1606398309.680,-34.668,-31.738,-34.668,-23.438,0.000
1606398309.684,-41.504,-34.180,-30.762,-31.738,0.000
1606398309.688,-35.156,-38.574,-37.598,-30.762,0.000
1606398309.692,-24.414,-44.434,-47.852,-24.902,0.000
1606398309.696,-28.809,-34.668,-41.016,-30.273,0.000
1606398309.700,-42.480,-38.574,-26.855,-40.039,0.000
1606398309.704,-55.176,-36.133,-22.949,-45.898,0.000
1606398309.708,-61.523,-20.996,-26.855,-57.617,0.000
1606398309.711,-51.270,-23.438,-27.344,-45.410,0.000
1606398309.715,-39.551,-29.785,-41.992,-26.855,0.000
1606398309.719,-42.480,-28.809,-42.969,-34.180,0.000
1606398309.723,-50.293,-31.738,-17.090,-41.992,0.000
1606398309.727,-53.711,-40.039,-12.695,-44.434,0.000
1606398309.731,-50.781,-34.668,-20.508,-38.086,0.000
1606398309.735,-44.922,-22.949,-16.602,-32.227,0.000
1606398309.739,-46.875,-24.902,-17.090,-31.738,0.000
1606398309.743,-50.781,-33.203,-26.367,-30.762,0.000
1606398309.747,-44.922,-37.109,-34.180,-28.809,0.000
1606398309.751,-36.621,-35.645,-42.480,-23.926,0.000
1606398309.754,-36.133,-28.320,-41.504,-22.949,0.000
1606398309.758,-33.691,-36.133,-22.949,-19.043,0.000
1606398309.762,-34.668,-36.621,-23.438,-20.508,0.000
1606398309.766,-32.227,-30.762,-28.809,-27.344,0.000
1606398309.770,-21.973,-29.785,-23.926,-19.043,0.000
1606398309.774,-15.625,-22.949,-32.227,-11.230,0.000
1606398309.778,-20.996,-21.973,-46.875,-17.090,0.000
1606398309.782,-25.391,-20.508,-41.992,-24.414,0.000
1606398309.786,-14.648,-24.902,-40.527,-23.438,0.000
1606398309.790,0.977,-30.762,-41.016,-9.277,0.000
1606398309.793,0.488,-30.273,-22.461,1.465,0.000
1606398309.797,-19.531,-29.785,-15.137,-17.578,0.000
1606398309.801,-31.250,-35.156,-17.090,-35.156,0.000
1606398309.805,-31.250,-41.504,-21.484,-27.344,0.000
1606398309.809,-26.855,-35.156,-27.344,-21.973,0.000
1606398309.813,-19.043,-30.273,-41.992,-13.672,0.000
1606398309.817,-14.160,-40.527,-52.734,-14.648,0.000
1606398309.821,-15.625,-43.945,-40.039,-22.949,0.000
1606398309.825,-22.461,-37.598,-17.578,-21.973,0.000
1606398309.829,-21.484,-39.062,-3.418,-15.137,0.000
1606398309.833,-22.461,-36.621,-11.719,-20.996,0.000
1606398309.836,-20.508,-29.297,-22.949,-21.973,0.000
1606398309.840,-24.902,-23.438,-38.574,-21.973,0.000
1606398309.844,-36.621,-27.344,-41.992,-31.250,0.000
1606398309.848,-35.156,-41.992,-25.391,-25.879,0.000
1606398309.852,-27.344,-41.016,-18.555,-17.090,0.000
1606398309.856,-27.832,-25.391,-17.578,-20.508,0.000
1606398309.860,-34.180,-33.691,-31.250,-24.414,0.000
1606398309.864,-34.668,-44.922,-45.898,-27.344,0.000
1606398309.868,-28.809,-41.016,-43.457,-24.902,0.000
1606398309.872,-24.414,-31.738,-32.227,-25.391,0.000
1606398309.876,-25.391,-18.066,-26.367,-30.273,0.000
1606398309.879,-35.645,-14.648,-34.668,-35.156,0.000
1606398309.883,-40.039,-19.043,-40.039,-38.574,0.000
1606398309.887,-38.086,-29.297,-29.297,-33.203,0.000
1606398309.891,-30.273,-42.969,-28.809,-24.902,0.000
1606398309.895,-21.973,-41.992,-29.297,-14.160,0.000
1606398309.899,-28.809,-25.879,-25.391,-15.137,0.000
1606398309.903,-39.062,-16.602,-27.832,-30.762,0.000
1606398309.907,-34.668,-27.344,-22.461,-30.273,0.000
1606398309.911,-24.414,-26.855,-22.461,-8.789,0.000
1606398309.915,-23.438,-17.578,-26.367,-5.859,0.000
1606398309.918,-24.902,-28.320,-27.832,-20.996,0.000
1606398309.922,-31.738,-34.668,-35.645,-29.785,0.000
1606398309.926,-41.992,-32.715,-37.109,-26.855,0.000
1606398309.930,-45.410,-38.574,-31.738,-25.391,0.000
1606398309.934,-38.574,-34.668,-31.250,-30.273,0.000
1606398309.938,-35.156,-36.621,-39.551,-26.855,0.000
1606398309.942,-43.945,-38.086,-38.574,-29.297,0.000
1606398309.946,-48.828,-27.344,-35.645,-37.109,0.000
1606398309.950,-44.434,-27.344,-43.457,-35.156,0.000
1606398309.954,-34.668,-28.809,-36.621,-32.715,0.000
1606398309.958,-31.738,-30.762,-24.414,-37.109,0.000
1606398309.961,-39.551,-36.621,-23.438,-41.992,0.000
1606398309.965,-43.945,-46.387,-31.250,-38.086,0.000
1606398309.969,-39.551,-43.457,-32.227,-30.273,0.000
1606398309.973,-34.668,-37.598,-26.855,-24.902,0.000
1606398309.977,-35.156,-40.527,-33.203,-26.367,0.000
1606398309.981,-49.316,-33.691,-37.109,-37.109,0.000
1606398309.985,-61.523,-38.086,-34.180,-43.945,0.000
1606398309.989,-55.664,-37.598,-24.902,-40.527,0.000
1606398309.993,-47.852,-26.367,-21.973,-33.203,0.000
1606398309.997,-43.945,-37.109,-31.738,-28.320,0.000
1606398310.001,-45.898,-41.016,-38.574,-30.762,0.000
1606398310.004,-52.246,-23.926,-37.109,-36.621,0.000
1606398310.008,-47.852,-25.879,-37.598,-33.203,0.000
1606398310.012,-34.180,-39.551,-35.645,-23.926,0.000
1606398310.016,-27.832,-44.922,-28.809,-21.484,0.000
1606398310.020,-40.039,-37.598,-22.461,-33.691,0.000
1606398310.024,-48.340,-22.949,-22.461,-38.086,0.000
1606398310.028,-43.945,-29.297,-20.996,-22.461,0.000
1606398310.032,-34.180,-29.297,-31.250,-18.555,0.000
1606398310.036,-23.926,-25.391,-54.688,-21.484,0.000
1606398310.040,-19.531,-40.039,-42.480,-24.414,0.000
1606398310.043,-28.809,-50.781,-23.438,-32.715,0.000
1606398310.047,-35.156,-48.828,-19.043,-33.203,0.000
1606398310.051,-26.855,-35.645,-14.160,-23.926,0.000
1606398310.055,-27.344,-30.273,-20.996,-13.184,0.000
1606398310.059,-34.180,-31.250,-34.668,-12.207,0.000
1606398310.063,-44.434,-28.809,-36.621,-17.578,0.000
1606398310.067,-40.039,-30.762,-27.832,-9.766,0.000
1606398310.071,-34.180,-32.715,-25.879,-4.883,0.000
1606398310.075,-32.227,-41.992,-29.785,-3.418,0.000
1606398310.079,-31.738,-37.598,-27.832,-12.207,0.000
1606398310.083,-41.992,-27.344,-25.391,-29.297,0.000
1606398310.086,-43.945,-37.598,-36.621,-34.668,0.000
1606398310.090,-27.832,-43.457,-39.551,-21.484,0.000
1606398310.094,-19.531,-37.598,-31.250,-16.113,0.000
1606398310.098,-23.438,-27.832,-34.180,-24.414,0.000
1606398310.102,-28.320,-32.227,-38.086,-30.273,0.000
1606398310.106,-32.715,-38.574,-32.715,-41.992,0.000
1606398310.110,-26.367,-30.273,-32.227,-37.598,0.000
1606398310.114,-19.531,-33.691,-38.086,-20.996,0.000
1606398310.118,-15.137,-42.480,-35.645,-19.531,0.000
1606398310.122,-16.113,-32.715,-33.203,-31.738,0.000
1606398310.126,-30.762,-20.020,-32.715,-37.109,0.000
1606398310.129,-39.062,-18.555,-42.969,-35.645,0.000
1606398310.133,-29.785,-34.668,-47.852,-28.809,0.000
1606398310.137,-26.855,-31.250,-36.133,-19.043,0.000
1606398310.141,-38.574,-17.578,-35.645,-30.273,0.000
1606398310.145,-39.062,-17.090,-36.621,-26.855,0.000
1606398310.149,-29.297,-22.461,-35.645,-19.043,0.000
1606398310.153,-24.414,-28.320,-42.969,-25.879,0.000
1606398310.157,-25.879,-26.855,-41.016,-29.297,0.000
1606398310.161,-28.320,-30.273,-25.879,-29.785,0.000
1606398310.165,-32.227,-30.273,-25.879,-34.668,0.000
1606398310.168,-31.738,-29.297,-34.180,-32.227,0.000
1606398310.172,-18.555,-38.574,-30.273,-23.438,0.000
1606398310.176,-13.672,-41.016,-30.273,-22.949,0.000
1606398310.180,-28.320,-32.715,-35.645,-24.414,0.000
1606398310.184,-36.621,-21.973,-35.645,-25.879,0.000
1606398310.188,-35.645,-18.066,-37.598,-21.484,0.000
1606398310.192,-30.762,-35.156,-47.852,-12.695,0.000
1606398310.196,-19.531,-44.922,-45.898,-11.230,0.000
1606398310.200,-21.484,-32.227,-37.598,-15.625,0.000
1606398310.204,-30.273,-24.414,-43.457,-20.508,0.000
1606398310.208,-41.016,-23.438,-38.574,-25.879,0.000
1606398310.211,-40.527,-29.297,-34.180,-27.344,0.000
1606398310.215,-31.738,-38.086,-33.691,-23.438,0.000
1606398310.219,-38.086,-32.227,-25.879,-28.809,0.000
1606398310.223,-42.969,-34.668,-30.273,-33.203,0.000
1606398310.227,-38.574,-36.133,-40.527,-26.855,0.000
1606398310.231,-30.273,-16.113,-34.180,-20.020,0.000
1606398310.235,-18.066,-23.438,-19.531,-17.090,0.000
1606398310.239,-17.578,-33.203,-19.043,-23.926,0.000
1606398310.243,-27.832,-19.043,-28.320,-32.227,0.000
1606398310.247,-37.598,-14.160,-31.250,-35.645,0.000
1606398310.251,-28.809,-17.090,-28.809,-30.762,0.000
1606398310.254,-11.719,-21.973,-33.691,-25.391,0.000
1606398310.258,-16.113,-22.949,-31.250,-24.902,0.000
1606398310.262,-23.438,-22.949,-28.320,-23.926,0.000
1606398310.266,-20.996,-34.668,-41.992,-28.320,0.000
1606398310.270,-17.090,-42.480,-41.992,-22.461,0.000
1606398310.274,-13.184,-36.621,-38.574,-16.602,0.000
1606398310.278,-14.648,-23.438,-40.527,-23.926,0.000
1606398310.282,-21.484,-24.902,-37.109,-23.926,0.000
1606398310.286,-27.832,-28.809,-31.738,-21.484,0.000
1606398310.290,-28.809,-28.320,-31.738,-22.461,0.000
1606398310.293,-17.578,-27.832,-35.645,-17.578,0.000
1606398310.297,-16.602,-28.809,-30.762,-16.113,0.000
1606398310.301,-29.297,-39.551,-33.203,-25.879,0.000
1606398310.305,-33.203,-38.574,-38.574,-31.250,0.000
1606398310.309,-36.133,-34.180,-41.992,-33.691,0.000
1606398310.313,-31.738,-42.969,-43.945,-31.738,0.000
1606398310.317,-28.809,-45.410,-38.086,-26.367,0.000
1606398310.321,-37.598,-23.926,-43.457,-37.109,0.000
1606398310.325,-42.969,-19.531,-42.480,-42.480,0.000
1606398310.329,-36.133,-25.391,-28.320,-31.250,0.000
1606398310.333,-25.391,-22.461,-21.484,-23.926,0.000
1606398310.336,-16.602,-20.508,-31.250,-19.531,0.000
1606398310.340,-18.555,-26.855,-34.668,-17.578,0.000
1606398310.344,-32.227,-33.203,-26.367,-21.973,0.000
1606398310.348,-34.180,-30.762,-29.785,-16.602,0.000
1606398310.352,-25.879,-27.832,-37.598,-3.418,0.000
1606398310.356,-23.926,-24.902,-34.668,-6.836,0.000
1606398310.360,-30.762,-31.250,-28.320,-14.160,0.000
1606398310.364,-37.598,-31.738,-30.762,-23.926,0.000
1606398310.368,-38.574,-22.461,-27.832,-27.344,0.000
1606398310.372,-33.691,-33.691,-22.461,-25.391,0.000
1606398310.376,-27.344,-47.363,-14.648,-20.996,0.000
1606398310.379,-34.180,-34.668,-23.926,-23.926,0.000
1606398310.383,-47.852,-33.203,-35.156,-36.621,0.000
1606398310.387,-41.504,-36.621,-21.973,-32.227,0.000
1606398310.391,-27.832,-25.391,-27.832,-21.484,0.000
1606398310.395,-27.832,-24.902,-37.109,-22.949,0.000
1606398310.399,-31.250,-40.527,-24.414,-29.785,0.000
1606398310.403,-36.133,-48.340,-21.973,-29.785,0.000
1606398310.407,-46.875,-35.156,-30.273,-36.621,0.000
1606398310.411,-41.504,-21.484,-23.926,-39.062,0.000
1606398310.415,-36.133,-20.020,-23.438,-32.715,0.000
1606398310.418,-41.016,-33.691,-34.180,-35.645,0.000
1606398310.422,-45.898,-47.852,-42.480,-36.133,0.000
1606398310.426,-52.246,-41.504,-44.434,-37.109,0.000
1606398310.430,-43.945,-30.762,-30.762,-30.273,0.000
1606398310.434,-30.273,-24.902,-27.344,-19.043,0.000
1606398310.438,-27.832,-37.109,-24.414,-19.531,0.000
1606398310.442,-37.109,-44.922,-24.902,-25.391,0.000
1606398310.446,-39.062,-28.320,-38.574,-29.297,0.000
1606398310.450,-29.785,-25.879,-29.785,-20.996,0.000
1606398310.454,-24.902,-25.391,-31.250,-18.066,0.000
1606398310.458,-20.996,-22.461,-39.062,-22.949,0.000
1606398310.461,-28.320,-39.062,-35.156,-31.738,0.000
1606398310.465,-37.109,-47.852,-25.879,-34.180,0.000
1606398310.469,-34.668,-33.203,-15.137,-32.227,0.000
1606398310.473,-27.344,-19.531,-20.020,-30.762,0.000
1606398310.477,-24.414,-26.367,-33.691,-32.715,0.000
1606398310.481,-31.250,-32.715,-40.527,-40.527,0.000
1606398310.485,-39.551,-21.973,-35.645,-37.109,0.000
1606398310.489,-34.668,-27.344,-30.762,-26.367,0.000
1606398310.493,-27.344,-45.898,-35.156,-19.531,0.000
1606398310.497,-29.785,-36.621,-39.551,-17.578,0.000
1606398310.501,-39.551,-25.391,-31.738,-27.344,0.000
1606398310.504,-43.945,-30.762,-29.297,-31.738,0.000
1606398310.508,-38.086,-35.645,-30.273,-21.484,0.000
1606398310.512,-30.762,-29.785,-26.367,-18.066,0.000
1606398310.516,-31.250,-33.691,-34.180,-25.391,0.000
1606398310.520,-31.738,-39.062,-45.898,-27.832,0.000
1606398310.524,-34.180,-23.926,-32.227,-27.832,0.000
1606398310.528,-42.480,-17.090,-28.809,-34.180,0.000
1606398310.532,-37.598,-19.531,-40.527,-33.691,0.000
1606398310.536,-27.832,-25.879,-36.133,-29.785,0.000
1606398310.540,-27.832,-32.715,-34.668,-29.297,0.000
1606398310.543,-33.691,-35.156,-30.273,-24.902,0.000
1606398310.547,-43.457,-36.133,-25.391,-27.344,0.000
1606398310.551,-40.039,-42.480,-27.344,-23.438,0.000
1606398310.555,-29.785,-52.246,-27.344,-20.020,0.000
1606398310.559,-37.598,-50.781,-27.344,-25.391,0.000
1606398310.563,-45.898,-39.062,-29.297,-29.785,0.000
1606398310.567,-42.969,-40.039,-35.156,-31.250,0.000
1606398310.571,-40.527,-40.039,-30.762,-28.320,0.000
1606398310.575,-34.668,-29.785,-18.066,-25.391,0.000
1606398310.579,-28.809,-27.832,-18.555,-20.996,0.000
1606398310.583,-35.156,-41.992,-25.391,-25.391,0.000
1606398310.586,-41.016,-46.875,-36.133,-30.273,0.000
1606398310.590,-35.156,-40.527,-37.109,-26.855,0.000
1606398310.594,-32.227,-38.574,-25.879,-30.273,0.000
1606398310.598,-34.668,-30.273,-26.855,-25.391,0.000
1606398310.602,-39.062,-20.020,-28.320,-20.020,0.000
1606398310.606,-38.086,-17.090,-27.832,-26.367,0.000
1606398310.610,-30.273,-26.367,-31.250,-21.484,0.000
1606398310.614,-21.484,-27.832,-29.297,-17.578,0.000
1606398310.618,-20.508,-23.438,-19.531,-19.043,0.000
1606398310.622,-30.273,-20.020,-15.625,-24.414,0.000
1606398310.626,-35.645,-22.461,-24.902,-26.855,0.000
1606398310.629,-28.809,-32.715,-25.879,-26.367,0.000
1606398310.633,-23.438,-29.785,-26.855,-19.043,0.000
1606398310.637,-21.973,-25.391,-29.785,-12.695,0.000
1606398310.641,-25.879,-31.250,-33.691,-20.020,0.000
1606398310.645,-34.668,-36.133,-39.551,-20.508,0.000
1606398310.649,-29.785,-28.809,-41.992,-10.742,0.000
1606398310.653,-20.996,-23.438,-37.109,-7.812,0.000
1606398310.657,-22.461,-31.250,-24.902,-15.137,0.000
1606398310.661,-25.391,-32.227,-23.438,-20.020,0.000
1606398310.665,-24.902,-32.227,-21.973,-22.949,0.000
1606398310.668,-28.320,-32.227,-20.996,-25.879,0.000
1606398310.672,-26.855,-28.320,-24.902,-14.160,0.000
1606398310.676,-18.555,-33.691,-32.227,-10.742,0.000
1606398310.680,-16.113,-33.691,-54.688,-22.949,0.000
1606398310.684,-26.367,-35.645,-55.176,-30.762,0.000
1606398310.688,-36.133,-40.039,-28.320,-37.598,0.000
1606398310.692,-26.367,-32.227,-12.207,-33.203,0.000
1606398310.696,-22.461,-26.367,-19.531,-30.273,0.000
1606398310.700,-22.949,-31.738,-22.949,-23.926,0.000
1606398310.704,-27.832,-31.738,-18.066,-29.297,0.000
1606398310.708,-32.715,-25.879,-23.438,-33.691,0.000
1606398310.711,-28.320,-27.832,-29.785,-22.949,0.000
1606398310.715,-32.715,-32.715,-35.645,-22.949,0.000
1606398310.719,-41.016,-42.969,-35.156,-27.832,0.000
1606398310.723,-48.828,-51.758,-40.039,-32.715,0.000
1606398310.727,-48.340,-45.410,-33.203,-29.297,0.000
1606398310.731,-39.551,-25.879,-26.855,-22.461,0.000
1606398310.735,-38.574,-21.973,-33.203,-21.484,0.000
1606398310.739,-43.457,-26.855,-31.250,-31.738,0.000
1606398310.743,-45.410,-20.020,-34.180,-39.062,0.000
1606398310.747,-42.480,-28.809,-41.504,-30.273,0.000
1606398310.751,-39.062,-38.574,-35.645,-22.949,0.000
1606398310.754,-31.250,-39.062,-33.203,-22.461,0.000
1606398310.758,-27.344,-35.156,-38.574,-24.902,0.000
1606398310.762,-32.227,-24.902,-31.250,-29.297,0.000
1606398310.766,-35.156,-22.949,-22.949,-29.785,0.000
1606398310.770,-37.598,-22.461,-24.414,-30.273,0.000
1606398310.774,-28.809,-21.973,-24.414,-21.973,0.000
1606398310.778,-15.625,-34.668,-19.531,-9.766,0.000
1606398310.782,-22.461,-37.598,-19.531,-14.648,0.000
1606398310.786,-28.320,-28.809,-21.484,-20.996,0.000
1606398310.790,-20.508,-20.508,-27.832,-13.184,0.000
1606398310.793,-11.230,-27.832,-28.809,0.977,0.000
1606398310.797,-8.301,-36.133,-16.602,1.953,0.000
1606398310.801,-16.113,-29.785,-16.602,-9.766,0.000
1606398310.805,-26.367,-30.273,-25.391,-15.137,0.000
1606398310.809,-28.809,-32.227,-29.297,-14.160,0.000
1606398310.813,-12.207,-25.391,-24.414,-12.695,0.000
1606398310.817,-4.883,-28.320,-21.973,-6.836,0.000
1606398310.821,-19.531,-35.156,-31.250,-13.184,0.000
1606398310.825,-31.738,-38.574,-39.062,-22.949,0.000
1606398310.829,-33.203,-22.949,-30.762,-21.973,0.000
1606398310.833,-23.438,-11.230,-24.902,-17.090,0.000
1606398310.836,-19.043,-21.973,-24.902,-12.695,0.000
1606398310.840,-27.832,-34.668,-25.879,-9.277,0.000
1606398310.844,-37.109,-39.551,-39.551,-13.184,0.000
1606398310.848,-38.574,-31.738,-38.086,-14.648,0.000
1606398310.852,-27.344,-28.809,-29.297,-6.348,0.000
1606398310.856,-22.949,-28.320,-19.043,-3.906,0.000
1606398310.860,-35.156,-22.461,-13.184,-16.602,0.000
1606398310.864,-42.480,-24.902,-19.531,-29.297,0.000
1606398310.868,-41.992,-35.645,-26.855,-29.297,0.000
1606398310.872,-29.785,-31.250,-33.203,-24.414,0.000
1606398310.876,-17.090,-20.996,-38.086,-14.648,0.000
1606398310.879,-19.043,-34.668,-36.621,-14.160,0.000
1606398310.883,-30.762,-50.293,-32.227,-27.344,0.000
1606398310.887,-36.133,-38.086,-30.762,-37.598,0.000
1606398310.891,-37.109,-22.949,-31.738,-41.992,0.000
1606398310.895,-28.809,-28.320,-32.715,-30.762,0.000
1606398310.899,-22.461,-31.738,-29.785,-22.461,0.000
1606398310.903,-28.320,-20.996,-35.156,-24.414,0.000
1606398310.907,-29.785,-20.508,-46.387,-22.949,0.000
1606398310.911,-30.762,-32.715,-39.551,-22.461,0.000
1606398310.915,-28.809,-38.086,-30.273,-20.508,0.000
1606398310.918,-30.273,-28.809,-33.691,-23.438,0.000
1606398310.922,-40.527,-26.367,-43.945,-34.668,0.000
1606398310.926,-41.504,-33.203,-42.969,-37.109,0.000
1606398310.930,-34.180,-30.273,-43.457,-31.250,0.000
1606398310.934,-26.855,-23.438,-46.875,-27.832,0.000
1606398310.938,-28.809,-23.926,-36.621,-33.691,0.000
1606398310.942,-37.598,-32.715,-27.832,-41.992,0.000
1606398310.946,-37.109,-42.480,-30.762,-39.551,0.000
1606398310.950,-31.250,-40.527,-34.668,-32.227,0.000
1606398310.954,-30.273,-38.086,-35.645,-30.762,0.000
1606398310.958,-35.156,-44.922,-31.738,-35.645,0.000
1606398310.961,-40.527,-37.598,-29.785,-44.434,0.000
1606398310.965,-44.434,-29.297,-31.738,-41.016,0.000
1606398310.969,-41.992,-35.645,-34.668,-33.203,0.000
1606398310.973,-33.691,-54.688,-33.203,-26.367,0.000
1606398310.977,-29.297,-47.363,-28.809,-26.367,0.000
1606398310.981,-35.645,-26.367,-33.203,-36.133,0.000
1606398310.985,-43.457,-31.738,-34.180,-34.180,0.000
1606398310.989,-41.992,-33.203,-28.809,-32.227,0.000
1606398310.993,-28.320,-34.668,-24.414,-25.391,0.000
1606398310.997,-20.508,-41.016,-20.508,-20.996,0.000
1606398311.001,-35.156,-34.668,-23.438,-37.109,0.000
1606398311.004,-44.434,-28.809,-24.902,-44.434,0.000
1606398311.008,-36.621,-28.809,-21.484,-35.156,0.000
1606398311.012,-33.203,-37.109,-27.344,-28.320,0.000
1606398311.016,-35.645,-30.762,-39.551,-30.273,0.000
1606398311.020,-41.504,-31.250,-38.086,-35.156,0.000
1606398311.024,-48.340,-34.668,-35.156,-38.574,0.000
1606398311.028,-44.922,-26.367,-33.691,-30.762,0.000
1606398311.032,-33.203,-37.598,-29.297,-19.043,0.000
1606398311.036,-25.879,-47.363,-21.973,-21.973,0.000
1606398311.040,-31.738,-38.086,-20.996,-32.715,0.000
1606398311.043,-39.551,-21.973,-26.855,-37.109,0.000
1606398311.047,-41.016,-19.043,-24.902,-39.062,0.000
1606398311.051,-38.574,-30.762,-30.762,-39.551,0.000
1606398311.055,-33.691,-30.273,-51.270,-32.227,0.000
1606398311.059,-29.785,-27.832,-50.781,-32.715,0.000
1606398311.063,-31.738,-42.969,-25.879,-35.645,0.000
1606398311.067,-33.691,-41.504,-18.066,-39.062,0.000
1606398311.071,-27.832,-27.344,-22.949,-35.645,0.000
1606398311.075,-25.879,-19.531,-24.902,-26.855,0.000
1606398311.079,-32.227,-17.578,-25.391,-31.738,0.000
1606398311.083,-40.039,-28.809,-30.273,-39.551,0.000
1606398311.086,-36.133,-30.273,-29.297,-39.062,0.000
1606398311.090,-33.691,-30.273,-37.598,-31.250,0.000
1606398311.094,-35.156,-29.297,-43.457,-26.367,0.000
1606398311.098,-36.133,-34.668,-30.273,-25.391,0.000
1606398311.102,-39.551,-49.316,-25.879,-27.832,0.000
1606398311.106,-34.180,-46.875,-30.273,-23.438,0.000
1606398311.110,-27.832,-40.527,-35.645,-10.742,0.000
1606398311.114,-26.367,-24.414,-42.969,-9.766,0.000
1606398311.118,-29.297,-12.695,-35.645,-15.137,0.000
1606398311.122,-30.762,-22.949,-23.438,-16.113,0.000
1606398311.126,-34.180,-33.203,-25.879,-26.855,0.000
1606398311.129,-41.016,-31.250,-32.715,-27.832,0.000
1606398311.133,-27.832,-31.738,-32.715,-14.160,0.000
1606398311.137,-16.113,-43.945,-39.062,-7.812,0.000
1606398311.141,-24.414,-44.922,-41.016,-14.648,0.000
1606398311.145,-33.691,-37.109,-41.504,-22.949,0.000
1606398311.149,-29.297,-33.691,-35.156,-17.090,0.000
1606398311.153,-26.855,-37.109,-28.320,-12.207,0.000
1606398311.157,-28.320,-28.809,-31.738,-14.648,0.000
1606398311.161,-33.691,-23.438,-29.785,-22.461,0.000
1606398311.165,-48.340,-34.180,-25.879,-32.715,0.000
1606398311.168,-40.039,-46.875,-37.598,-29.785,0.000
1606398311.172,-25.391,-52.734,-49.805,-15.625,0.000
1606398311.176,-31.738,-26.367,-37.109,-17.090,0.000
1606398311.180,-40.527,-11.230,-19.531,-28.320,0.000
1606398311.184,-42.480,-14.160,-19.043,-34.180,0.000
1606398311.188,-38.086,-23.926,-25.879,-30.762,0.000
1606398311.192,-29.785,-34.180,-27.344,-13.672,0.000
1606398311.196,-22.461,-32.715,-25.391,-11.719,0.000
1606398311.200,-26.367,-39.062,-26.367,-18.066,0.000
1606398311.204,-41.992,-38.574,-38.086,-27.344,0.000
1606398311.208,-45.410,-26.367,-36.133,-33.691,0.000
1606398311.211,-34.180,-32.715,-23.438,-30.273,0.000
1606398311.215,-30.273,-31.738,-23.926,-31.738,0.000
1606398311.219,-33.691,-36.621,-27.344,-32.227,0.000
1606398311.223,-36.133,-55.176,-33.691,-30.762,0.000
1606398311.227,-39.062,-35.645,-41.992,-31.250,0.000
1606398311.231,-37.598,-16.602,-39.062,-29.297,0.000
1606398311.235,-27.344,-23.926,-29.297,-29.785,0.000
1606398311.239,-25.391,-27.832,-27.344,-28.320,0.000
1606398311.243,-31.250,-42.969,-30.762,-25.879,0.000
1606398311.247,-34.668,-54.688,-37.109,-27.832,0.000
1606398311.251,-33.691,-21.973,-37.109,-22.949,0.000
1606398311.254,-28.809,-11.719,-28.320,-20.996,0.000
1606398311.258,-25.879,-32.715,-29.785,-15.137,0.000
1606398311.262,-32.227,-30.762,-30.762,-14.648,0.000
1606398311.266,-38.574,-23.438,-24.414,-21.973,0.000
1606398311.270,-22.949,-58.594,-20.508,-12.207,0.000
1606398311.274,-14.160,-57.617,-30.273,-9.766,0.000
1606398311.278,-22.949,-14.648,-39.551,-19.531,0.000
1606398311.282,-30.762,-8.789,-39.551,-27.832,0.000
1606398311.286,-33.691,-21.484,-41.016,-30.762,0.000
1606398311.290,-31.250,-25.391,-37.598,-20.996,0.000
1606398311.293,-25.391,-22.461,-27.832,-20.020,0.000
1606398311.297,-19.531,-28.320,-27.832,-24.902,0.000
1606398311.301,-28.809,-42.969,-26.855,-20.996,0.000
1606398311.305,-41.504,-39.551,-19.043,-21.484,0.000
1606398311.309,-36.621,-21.973,-21.484,-20.996,0.000
1606398311.313,-22.461,-17.578,-26.855,-13.672,0.000
1606398311.317,-18.555,-38.574,-29.297,-7.324,0.000
1606398311.321,-31.250,-34.668,-36.133,-17.578,0.000
1606398311.325,-40.527,-19.043,-39.062,-24.414,0.000
1606398311.329,-33.691,-25.879,-35.156,-20.996,0.000
1606398311.333,-19.531,-41.016,-19.043,-18.066,0.000
1606398311.336,-14.648,-41.016,-12.207,-18.066,0.000
1606398311.340,-25.879,-21.973,-18.066,-23.926,0.000
1606398311.344,-36.133,-13.672,-22.949,-28.320,0.000
1606398311.348,-27.832,-22.461,-26.855,-20.020,0.000
1606398311.352,-15.137,-27.832,-33.203,-13.184,0.000
1606398311.356,-20.996,-23.926,-34.180,-18.066,0.000
1606398311.360,-31.738,-39.551,-31.738,-27.832,0.000
1606398311.364,-36.621,-52.246,-32.715,-34.668,0.000
1606398311.368,-39.062,-37.598,-37.598,-34.668,0.000
1606398311.372,-30.273,-23.438,-34.668,-24.414,0.000
1606398311.376,-19.531,-25.879,-23.926,-12.207,0.000
1606398311.379,-24.414,-35.645,-29.297,-24.414,0.000
1606398311.383,-41.016,-40.527,-38.086,-37.598,0.000
1606398311.387,-48.828,-40.527,-35.156,-33.691,0.000
1606398311.391,-40.527,-43.457,-33.203,-28.320,0.000
1606398311.395,-26.367,-39.062,-32.227,-19.043,0.000
1606398311.399,-27.832,-19.531,-25.879,-22.949,0.000
1606398311.403,-41.016,-7.324,-24.414,-43.457,0.000
1606398311.407,-42.480,-15.137,-29.785,-41.504,0.000
1606398311.411,-30.762,-35.645,-39.551,-20.996,0.000
1606398311.415,-20.508,-33.203,-44.922,-23.438,0.000
1606398311.418,-24.414,-24.414,-36.621,-30.273,0.000
1606398311.422,-30.762,-43.945,-30.273,-29.785,0.000
1606398311.426,-39.062,-40.039,-39.062,-31.738,0.000
1606398311.430,-40.039,-15.137,-35.156,-23.926,0.000
1606398311.434,-30.273,-14.648,-22.461,-20.020,0.000
1606398311.438,-28.809,-27.344,-17.578,-19.531,0.000
1606398311.442,-38.574,-39.062,-26.367,-22.949,0.000
1606398311.446,-43.945,-30.762,-37.598,-31.738,0.000
1606398311.450,-36.133,-29.297,-30.762,-27.832,0.000
1606398311.454,-29.785,-34.668,-35.156,-22.461,0.000
1606398311.458,-22.461,-36.133,-51.270,-20.020,0.000
1606398311.461,-24.902,-37.598,-41.992,-22.949,0.000
1606398311.465,-41.504,-29.785,-26.367,-30.762,0.000
1606398311.469,-44.434,-23.926,-27.832,-32.227,0.000
1606398311.473,-33.691,-25.391,-33.691,-24.414,0.000
1606398311.477,-33.203,-25.879,-40.527,-21.484,0.000
1606398311.481,-45.898,-32.227,-45.898,-32.715,0.000
1606398311.485,-51.270,-54.688,-42.969,-33.691,0.000
1606398311.489,-49.316,-41.992,-40.527,-31.738,0.000
1606398311.493,-39.551,-17.090,-31.250,-33.203,0.000
1606398311.497,-27.344,-33.691,-16.602,-25.391,0.000
1606398311.501,-30.273,-35.645,-13.672,-20.020,0.000
1606398311.504,-43.457,-10.742,-27.832,-31.250,0.000
1606398311.508,-37.598,-5.371,-34.668,-28.320,0.000
1606398311.512,-18.066,-23.926,-43.457,-8.301,0.000
1606398311.516,-20.996,-37.109,-49.316,-17.090,0.000
1606398311.520,-33.691,-26.855,-23.926,-37.109,0.000
1606398311.524,-39.062,-27.832,-10.742,-43.457,0.000
1606398311.528,-39.551,-39.551,-17.578,-37.598,0.000
1606398311.532,-29.785,-34.668,-23.926,-26.855,0.000
1606398311.536,-21.973,-20.020,-23.438,-23.438,0.000
1606398311.540,-26.367,-20.996,-19.043,-21.973,0.000
1606398311.543,-32.715,-30.273,-15.625,-22.461,0.000
1606398311.547,-31.250,-31.250,-34.668,-29.297,0.000
1606398311.551,-27.832,-29.297,-41.992,-29.297,0.000
1606398311.555,-23.438,-42.480,-19.531,-15.137,0.000
1606398311.559,-27.344,-31.738,-10.254,-18.066,0.000
1606398311.563,-39.551,-6.348,-19.043,-33.691,0.000
1606398311.567,-40.039,-13.672,-24.902,-33.691,0.000
1606398311.571,-33.691,-18.066,-31.738,-26.367,0.000
1606398311.575,-30.273,-26.855,-42.969,-19.531,0.000
1606398311.579,-28.809,-29.785,-44.922,-20.020,0.000
1606398311.583,-33.691,-20.508,-46.387,-26.855,0.000
1606398311.586,-35.645,-32.227,-43.945,-27.344,0.000
1606398311.590,-25.879,-42.480,-27.344,-21.484,0.000
1606398311.594,-13.672,-37.109,-16.602,-17.090,0.000
1606398311.598,-17.090,-37.109,-19.531,-24.414,0.000
1606398311.602,-26.367,-31.250,-28.809,-32.715,0.000
1606398311.606,-28.809,-16.602,-29.297,-32.227,0.000
1606398311.610,-23.926,-1.953,-32.227,-23.438,0.000
1606398311.614,-6.836,-9.277,-34.180,-8.789,0.000
1606398311.618,-8.301,-29.785,-33.691,-6.836,0.000
1606398311.622,-27.344,-18.555,-39.551,-14.160,0.000
1606398311.626,-37.598,-11.719,-28.809,-22.949,0.000
1606398311.629,-37.109,-22.461,-20.020,-23.926,0.000
1606398311.633,-32.227,-40.039,-22.949,-15.137,0.000
1606398311.637,-27.832,-37.109,-21.973,-15.137,0.000
1606398311.641,-37.109,-21.973,-29.297,-29.785,0.000
1606398311.645,-50.293,-36.621,-39.551,-30.762,0.000
1606398311.649,-47.363,-53.223,-40.039,-25.391,0.000
1606398311.653,-32.227,-39.062,-47.852,-20.508,0.000
1606398311.657,-11.719,-16.602,-54.199,-8.789,0.000
1606398311.661,-22.949,-23.438,-30.273,-20.020,0.000
1606398311.665,-55.176,-36.621,-13.672,-49.805,0.000
1606398311.668,-59.570,-31.250,-23.438,-54.199,0.000
1606398311.672,-54.199,-24.414,-30.273,-49.805,0.000
1606398311.676,-47.363,-20.020,-21.973,-42.969,0.000
1606398311.680,-52.246,-32.715,-19.043,-43.457,0.000
1606398311.684,-64.453,-37.109,-24.414,-56.152,0.000
1606398311.688,-64.453,-30.762,-26.855,-62.500,0.000
1606398311.692,-58.594,-39.062,-37.109,-56.641,0.000
1606398311.696,-52.734,-38.574,-40.039,-48.340,0.000
1606398311.700,-50.781,-31.738,-39.062,-48.828,0.000
1606398311.704,-51.758,-31.738,-37.598,-53.223,0.000
1606398311.708,-44.922,-36.133,-36.133,-53.711,0.000
1606398311.711,-30.273,-32.715,-31.738,-43.457,0.000
1606398311.715,-19.531,-25.391,-20.996,-29.785,0.000
1606398311.719,-18.555,-22.461,-24.414,-31.738,0.000
1606398311.723,-24.902,-27.344,-29.785,-33.203,0.000
1606398311.727,-27.344,-26.367,-20.996,-26.855,0.000
1606398311.731,-24.902,-24.902,-26.367,-28.320,0.000
1606398311.735,-18.066,-30.273,-38.086,-18.066,0.000
1606398311.739,-20.996,-31.250,-41.504,-15.137,0.000
1606398311.743,-34.180,-31.250,-32.715,-29.785,0.000
1606398311.747,-41.016,-30.762,-28.809,-35.156,0.000
1606398311.751,-34.668,-33.203,-25.879,-26.367,0.000
1606398311.754,-25.879,-30.273,-19.043,-11.719,0.000
1606398311.758,-29.297,-26.367,-27.832,-9.277,0.000
1606398311.762,-39.551,-30.273,-34.180,-12.695,0.000
1606398311.766,-44.434,-36.621,-33.203,-17.090,0.000
1606398311.770,-36.133,-46.387,-29.785,-20.996,0.000
1606398311.774,-23.438,-41.504,-21.973,-14.160,0.000
1606398311.778,-18.555,-27.832,-19.043,-11.719,0.000
1606398311.782,-25.391,-25.391,-31.250,-26.367,0.000
1606398311.786,-32.227,-37.598,-38.086,-31.250,0.000
1606398311.790,-24.414,-32.715,-29.297,-25.391,0.000
1606398311.793,-15.137,-26.855,-31.250,-19.531,0.000
1606398311.797,-16.113,-36.621,-31.250,-11.719,0.000
1606398311.801,-20.020,-37.598,-25.879,-18.555,0.000
1606398311.805,-28.809,-31.738,-26.367,-28.809,0.000
1606398311.809,-30.762,-24.414,-23.926,-26.855,0.000
1606398311.813,-23.926,-32.227,-23.438,-16.113,0.000
1606398311.817,-21.484,-34.180,-20.020,-10.254,0.000
1606398311.821,-27.344,-22.949,-25.391,-23.438,0.000
1606398311.825,-35.156,-28.320,-42.480,-32.715,0.000
1606398311.829,-34.668,-38.086,-43.945,-26.367,0.000
1606398311.833,-23.926,-33.203,-30.273,-14.648,0.000
1606398311.836,-20.020,-25.391,-21.973,-18.066,0.000
1606398311.840,-24.902,-25.879,-22.461,-28.809,0.000
1606398311.844,-30.762,-25.391,-22.461,-31.738,0.000
1606398311.848,-32.227,-24.902,-24.902,-23.926,0.000
1606398311.852,-24.902,-24.902,-36.621,-20.020,0.000
1606398311.856,-22.949,-23.438,-39.551,-18.066,0.000
1606398311.860,-31.738,-27.832,-33.691,-13.184,0.000
1606398311.864,-40.527,-33.203,-40.527,-30.762,0.000
1606398311.868,-43.457,-24.414,-42.480,-36.621,0.000
1606398311.872,-35.645,-31.250,-43.945,-22.461,0.000
1606398311.876,-32.715,-35.156,-39.062,-19.531,0.000
1606398311.879,-40.527,-20.996,-31.738,-36.621,0.000
1606398311.883,-44.922,-20.508,-29.297,-49.805,0.000
1606398311.887,-42.969,-24.902,-35.645,-43.457,0.000
1606398311.891,-33.691,-27.832,-39.551,-34.668,0.000
1606398311.895,-23.926,-31.738,-34.180,-26.367,0.000
1606398311.899,-23.926,-30.762,-41.016,-23.926,0.000
1606398311.903,-34.180,-40.527,-42.480,-28.320,0.000
1606398311.907,-37.109,-35.156,-37.598,-34.668,0.000
1606398311.911,-30.273,-13.672,-34.180,-33.203,0.000
1606398311.915,-22.461,-14.648,-25.879,-20.996,0.000
1606398311.918,-23.926,-20.508,-23.926,-19.043,0.000
1606398311.922,-32.227,-24.414,-23.438,-22.461,0.000
1606398311.926,-33.691,-24.902,-25.391,-22.949,0.000
1606398311.930,-27.344,-20.996,-32.227,-23.438,0.000
1606398311.934,-18.555,-22.461,-31.738,-18.066,0.000
1606398311.938,-17.578,-31.250,-29.785,-20.508,0.000
1606398311.942,-26.855,-35.645,-33.203,-28.320,0.000
1606398311.946,-38.574,-33.691,-36.133,-36.133,0.000
1606398311.950,-39.551,-32.227,-34.180,-33.203,0.000
1606398311.954,-27.832,-20.996,-29.785,-15.625,0.000
1606398311.958,-22.949,-17.578,-22.949,-18.066,0.000
1606398311.961,-33.203,-27.344,-21.484,-28.809,0.000
1606398311.965,-44.922,-31.738,-27.344,-32.227,0.000
1606398311.969,-45.410,-28.809,-31.250,-32.715,0.000
1606398311.973,-40.039,-35.156,-29.785,-30.762,0.000
1606398311.977,-30.762,-41.504,-32.715,-27.344,0.000
1606398311.981,-28.809,-29.785,-37.598,-27.832,0.000
1606398311.985,-40.039,-22.461,-31.250,-29.297,0.000
1606398311.989,-39.062,-20.020,-22.949,-23.438,0.000
1606398311.993,-31.250,-27.832,-25.879,-23.926,0.000
1606398311.997,-27.832,-36.621,-31.738,-21.973,0.000
1606398312.001,-38.574,-40.039,-37.109,-27.832,0.000
1606398312.004,-48.340,-34.668,-31.738,-35.645,0.000
1606398312.008,-40.527,-34.668,-19.043,-30.762,0.000
1606398312.012,-30.273,-39.062,-20.020,-24.902,0.000
1606398312.016,-26.855,-29.297,-26.855,-25.391,0.000
1606398312.020,-31.250,-25.879,-33.203,-30.273,0.000
1606398312.024,-39.062,-24.902,-37.598,-36.133,0.000
1606398312.028,-33.691,-18.555,-29.785,-33.203,0.000
1606398312.032,-22.461,-21.973,-29.297,-21.484,0.000
1606398312.036,-15.625,-23.926,-37.109,-18.066,0.000
1606398312.040,-19.043,-24.902,-41.016,-22.949,0.000
1606398312.043,-28.320,-31.738,-37.109,-30.762,0.000
1606398312.047,-33.691,-30.273,-33.203,-33.203,0.000
1606398312.051,-29.297,-32.227,-37.598,-25.391,0.000
1606398312.055,-26.855,-32.715,-27.344,-19.043,0.000
1606398312.059,-35.156,-20.996,-32.227,-27.344,0.000
1606398312.063,-38.086,-14.160,-42.480,-41.504,0.000
1606398312.067,-37.109,-25.391,-26.855,-38.086,0.000
1606398312.071,-33.691,-27.344,-27.344,-27.832,0.000
1606398312.075,-26.855,-21.484,-36.621,-21.484,0.000
1606398312.079,-31.250,-29.297,-42.480,-22.461,0.000
1606398312.083,-39.551,-39.551,-52.734,-26.855,0.000
1606398312.086,-44.922,-41.016,-44.434,-27.344,0.000
1606398312.090,-37.109,-36.133,-27.344,-20.996,0.000
1606398312.094,-25.879,-27.832,-23.926,-19.043,0.000
1606398312.098,-29.785,-34.668,-31.738,-20.508,0.000
1606398312.102,-36.621,-37.109,-40.527,-20.020,0.000
1606398312.106,-35.156,-24.902,-38.086,-27.344,0.000
1606398312.110,-31.738,-25.879,-33.691,-24.902,0.000
1606398312.114,-25.391,-27.344,-37.598,-11.230,0.000
1606398312.118,-24.902,-20.020,-35.645,-13.672,0.000
1606398312.122,-30.273,-12.695,-30.273,-29.297,0.000
1606398312.126,-35.156,-24.902,-36.133,-36.621,0.000
1606398312.129,-34.180,-38.086,-33.203,-28.320,0.000
1606398312.133,-30.273,-34.180,-26.367,-18.555,0.000
1606398312.137,-30.273,-38.574,-30.762,-18.066,0.000
1606398312.141,-36.133,-38.086,-46.875,-25.391,0.000
1606398312.145,-47.363,-37.109,-47.852,-27.344,0.000
1606398312.149,-48.828,-38.086,-30.273,-23.926,0.000
1606398312.153,-34.180,-23.926,-16.602,-13.184,0.000
1606398312.157,-32.227,-24.414,-14.160,-10.742,0.000
1606398312.161,-39.062,-24.902,-14.160,-19.531,0.000
1606398312.165,-39.551,-16.602,-20.996,-26.855,0.000
1606398312.168,-35.645,-20.020,-33.203,-23.926,0.000
1606398312.172,-29.297,-29.297,-30.762,-18.555,0.000
1606398312.176,-22.461,-31.738,-27.344,-18.555,0.000
1606398312.180,-27.344,-30.762,-40.039,-17.578,0.000
1606398312.184,-36.621,-40.039,-43.457,-23.438,0.000
1606398312.188,-37.598,-42.480,-27.344,-25.391,0.000
1606398312.192,-31.250,-25.879,-18.066,-13.672,0.000
1606398312.196,-24.414,-17.578,-20.020,-8.301,0.000
1606398312.200,-25.391,-23.926,-23.926,-22.949,0.000
1606398312.204,-36.133,-32.227,-30.273,-37.598,0.000
1606398312.208,-39.062,-34.668,-34.668,-38.086,0.000
1606398312.211,-30.273,-38.086,-35.156,-30.273,0.000
1606398312.215,-16.602,-38.086,-40.039,-18.555,0.000
1606398312.219,-19.043,-29.785,-42.480,-19.531,0.000
1606398312.223,-32.227,-26.367,-29.785,-27.832,0.000
1606398312.227,-36.133,-26.367,-23.926,-31.738,0.000
1606398312.231,-33.203,-29.297,-26.855,-24.414,0.000
1606398312.235,-24.902,-35.645,-26.367,-13.184,0.000
1606398312.239,-20.020,-31.738,-23.926,-19.531,0.000
1606398312.243,-20.996,-19.043,-25.391,-24.414,0.000
1606398312.247,-26.855,-23.438,-30.273,-18.555,0.000
1606398312.251,-26.367,-31.738,-32.715,-19.531,0.000
1606398312.254,-20.508,-23.438,-34.180,-17.578,0.000
1606398312.258,-20.508,-16.602,-37.109,-19.043,0.000
1606398312.262,-29.785,-27.344,-36.133,-27.344,0.000
1606398312.266,-44.922,-32.715,-34.180,-28.809,0.000
1606398312.270,-44.434,-27.832,-27.832,-25.391,0.000
1606398312.274,-34.668,-24.414,-20.996,-23.926,0.000
1606398312.278,-39.551,-32.715,-27.832,-32.227,0.000
1606398312.282,-52.246,-39.551,-34.668,-42.480,0.000
1606398312.286,-57.617,-34.668,-35.645,-43.457,0.000
1606398312.290,-54.199,-30.762,-32.715,-40.039,0.000
1606398312.293,-44.434,-34.180,-31.250,-29.785,0.000
1606398312.297,-39.062,-33.203,-37.598,-26.367,0.000
1606398312.301,-39.062,-26.367,-47.852,-28.809,0.000
1606398312.305,-45.410,-30.762,-38.086,-31.250,0.000
1606398312.309,-43.457,-37.598,-25.391,-34.668,0.000
1606398312.313,-35.645,-31.250,-23.438,-24.414,0.000
1606398312.317,-28.320,-26.367,-24.414,-16.602,0.000
1606398312.321,-25.879,-28.320,-30.762,-27.832,0.000
1606398312.325,-37.598,-31.250,-33.691,-38.574,0.000
1606398312.329,-49.316,-26.855,-33.691,-37.598,0.000
1606398312.333,-42.480,-15.625,-35.645,-32.227,0.000
1606398312.336,-33.691,-20.508,-31.738,-24.902,0.000
1606398312.340,-33.691,-38.086,-33.691,-22.461,0.000
1606398312.344,-36.621,-39.062,-39.062,-27.344,0.000
1606398312.348,-25.391,-22.949,-32.715,-23.926,0.000
1606398312.352,-9.766,-19.043,-25.879,-3.418,0.000
1606398312.356,-16.602,-21.484,-18.555,-5.859,0.000
1606398312.360,-34.668,-26.855,-12.207,-31.250,0.000
1606398312.364,-53.711,-33.691,-16.113,-41.992,0.000
1606398312.368,-56.152,-39.551,-24.902,-39.062,0.000
1606398312.372,-39.062,-43.945,-24.414,-30.273,0.000
1606398312.376,-33.203,-37.598,-27.344,-21.484,0.000
1606398312.379,-36.133,-33.203,-38.086,-24.902,0.000
1606398312.383,-45.898,-48.340,-34.668,-32.227,0.000
1606398312.387,-49.805,-53.223,-14.160,-22.461,0.000
1606398312.391,-44.922,-39.062,-10.742,-20.996,0.000
1606398312.395,-40.527,-37.109,-21.973,-19.043,0.000
1606398312.399,-40.039,-36.133,-20.996,-15.625,0.000
1606398312.403,-48.340,-29.785,-16.602,-24.902,0.000
1606398312.407,-54.199,-32.227,-23.926,-35.156,0.000
1606398312.411,-48.828,-41.016,-29.785,-30.273,0.000
1606398312.415,-33.203,-37.598,-27.344,-21.484,0.000
1606398312.418,-27.832,-35.645,-42.480,-22.461,0.000
1606398312.422,-37.109,-43.457,-48.340,-26.367,0.000
1606398312.426,-38.086,-44.922,-28.320,-29.297,0.000
1606398312.430,-36.621,-53.711,-22.461,-25.879,0.000
1606398312.434,-37.109,-41.504,-26.367,-26.855,0.000
1606398312.438,-32.227,-25.879,-22.949,-28.320,0.000
1606398312.442,-37.598,-29.785,-21.973,-35.156,0.000
1606398312.446,-40.527,-28.809,-27.344,-39.062,0.000
1606398312.450,-30.762,-27.832,-29.297,-30.273,0.000
1606398312.454,-24.902,-26.855,-23.926,-27.832,0.000
1606398312.458,-20.508,-22.461,-23.438,-33.691,0.000
1606398312.461,-21.973,-21.973,-35.645,-33.691,0.000
1606398312.465,-30.762,-25.879,-41.504,-25.879,0.000
1606398312.469,-31.250,-31.738,-35.156,-15.625,0.000
1606398312.473,-20.020,-39.551,-31.250,-6.836,0.000
1606398312.477,-13.672,-30.762,-31.738,-3.906,0.000
1606398312.481,-21.973,-11.230,-32.715,-17.090,0.000
1606398312.485,-28.809,-13.672,-26.367,-22.949,0.000
1606398312.489,-26.367,-20.996,-23.926,-18.555,0.000
1606398312.493,-22.461,-28.320,-31.250,-15.137,0.000
1606398312.497,-21.484,-33.203,-32.715,-15.625,0.000
1606398312.501,-28.809,-32.715,-40.039,-26.367,0.000
1606398312.504,-36.133,-35.156,-43.457,-31.738,0.000
1606398312.508,-32.715,-35.156,-36.621,-27.832,0.000
1606398312.512,-21.973,-35.156,-27.344,-19.531,0.000
1606398312.516,-14.160,-33.203,-27.832,-17.090,0.000
1606398312.520,-23.926,-44.922,-31.738,-19.531,0.000
1606398312.524,-38.086,-40.039,-21.973,-23.926,0.000
1606398312.528,-36.621,-25.391,-21.973,-30.273,0.000
1606398312.532,-30.762,-32.715,-32.715,-26.855,0.000
1606398312.536,-31.250,-35.645,-31.738,-19.531,0.000
1606398312.540,-32.715,-36.133,-31.250,-21.484,0.000
1606398312.543,-39.551,-38.086,-36.133,-21.973,0.000
1606398312.547,-42.969,-34.180,-34.668,-19.043,0.000
1606398312.551,-32.715,-28.320,-35.645,-14.160,0.000
1606398312.555,-25.879,-30.273,-38.086,-11.230,0.000
1606398312.559,-22.949,-35.156,-31.250,-12.207,0.000
1606398312.563,-23.926,-38.574,-24.902,-17.090,0.000
1606398312.567,-27.344,-33.691,-27.344,-20.020,0.000
1606398312.571,-23.438,-25.391,-33.691,-14.160,0.000
1606398312.575,-12.695,-27.832,-33.203,-5.371,0.000
1606398312.579,-14.648,-27.344,-35.645,-5.371,0.000
1606398312.583,-19.043,-22.949,-34.180,-7.812,0.000
1606398312.586,-13.672,-23.438,-24.414,-6.836,0.000
1606398312.590,-26.367,-26.855,-20.996,-21.484,0.000
1606398312.594,-37.109,-30.762,-26.367,-39.062,0.000
1606398312.598,-41.016,-35.645,-21.973,-45.410,0.000
1606398312.602,-48.828,-39.062,-28.809,-49.805,0.000
1606398312.606,-54.199,-41.992,-29.297,-50.781,0.000
1606398312.610,-63.965,-51.758,-20.020,-52.734,0.000
1606398312.614,-59.570,-47.852,-20.508,-41.992,0.000
1606398312.618,-58.105,-32.715,-27.832,-52.246,0.000
1606398312.622,-63.965,-41.504,-29.785,-59.082,0.000
1606398312.626,-78.613,-55.176,-20.996,-55.176,0.000
1606398312.629,-80.078,-47.852,-22.461,-56.152,0.000
1606398312.633,-67.871,-39.062,-33.691,-49.805,0.000
1606398312.637,-68.359,-39.551,-27.344,-47.363,0.000
1606398312.641,-73.242,-38.574,-15.625,-46.387,0.000
1606398312.645,-72.266,-38.086,-22.461,-45.410,0.000
1606398312.649,-63.477,-42.480,-32.227,-44.922,0.000
1606398312.653,-53.711,-41.016,-31.738,-40.527,0.000
1606398312.657,-48.828,-38.574,-31.738,-32.227,0.000
1606398312.661,-59.570,-40.527,-36.133,-35.156,0.000
1606398312.665,-66.406,-41.504,-31.738,-43.945,0.000
1606398312.668,-64.941,-41.504,-27.344,-43.945,0.000
1606398312.672,-54.199,-40.039,-29.297,-30.762,0.000
1606398312.676,-40.527,-31.250,-32.715,-23.926,0.000
1606398312.680,-37.109,-31.738,-39.062,-23.438,0.000
1606398312.684,-46.387,-35.645,-36.621,-26.855,0.000
1606398312.688,-49.805,-30.273,-34.668,-27.344,0.000
1606398312.692,-39.551,-27.832,-35.645,-15.137,0.000
1606398312.696,-32.715,-26.855,-33.691,-13.672,0.000
1606398312.700,-36.621,-37.598,-37.598,-20.020,0.000
1606398312.704,-41.016,-35.156,-33.203,-31.250,0.000
1606398312.708,-41.016,-27.344,-32.715,-40.039,0.000
1606398312.711,-28.320,-32.715,-34.180,-23.926,0.000
1606398312.715,-10.254,-27.832,-29.785,-5.859,0.000
1606398312.719,-24.902,-20.020,-22.461,-25.391,0.000
1606398312.723,-53.223,-25.879,-21.973,-51.758,0.000
1606398312.727,-57.617,-36.133,-25.879,-43.945,0.000
1606398312.731,-42.969,-34.180,-27.832,-31.250,0.000
1606398312.735,-36.133,-30.273,-26.855,-25.879,0.000
1606398312.739,-44.434,-31.738,-20.996,-27.832,0.000
1606398312.743,-48.828,-32.715,-20.508,-28.320,0.000
1606398312.747,-49.805,-35.645,-28.320,-31.738,0.000
1606398312.751,-43.945,-36.133,-28.809,-25.391,0.000
1606398312.754,-33.691,-32.715,-30.273,-14.648,0.000
1606398312.758,-29.297,-43.945,-40.039,-15.137,0.000
1606398312.762,-32.227,-53.223,-40.527,-21.484,0.000
1606398312.766,-37.598,-37.598,-39.062,-24.902,0.000
1606398312.770,-37.598,-27.344,-38.086,-25.391,0.000
1606398312.774,-27.344,-22.949,-28.320,-20.996,0.000
1606398312.778,-19.531,-12.695,-21.973,-11.230,0.000
1606398312.782,-29.297,-14.648,-24.902,-14.160,0.000
1606398312.786,-36.621,-23.438,-21.973,-17.090,0.000
1606398312.790,-31.250,-25.391,-22.461,-15.137,0.000
1606398312.793,-29.297,-24.414,-28.809,-13.672,0.000
1606398312.797,-29.785,-25.391,-31.250,-14.160,0.000
1606398312.801,-29.785,-28.320,-27.344,-19.043,0.000
1606398312.805,-34.180,-30.273,-28.320,-20.996,0.000
1606398312.809,-33.203,-32.715,-40.039,-20.996,0.000
1606398312.813,-24.902,-30.762,-43.457,-21.973,0.000
1606398312.817,-23.926,-24.414,-35.156,-24.414,0.000
1606398312.821,-33.203,-24.902,-29.785,-25.391,0.000
1606398312.825,-42.969,-19.043,-28.320,-34.180,0.000
1606398312.829,-47.363,-19.043,-27.832,-34.180,0.000
1606398312.833,-39.062,-23.926,-32.227,-25.391,0.000
1606398312.836,-29.297,-28.320,-34.668,-25.391,0.000
1606398312.840,-31.738,-35.645,-29.297,-26.367,0.000
1606398312.844,-37.109,-33.691,-28.809,-24.902,0.000
1606398312.848,-34.668,-33.203,-29.785,-19.043,0.000
1606398312.852,-30.762,-31.738,-31.250,-13.672,0.000
1606398312.856,-25.879,-18.066,-32.715,-16.602,0.000
1606398312.860,-21.484,-16.113,-37.109,-11.719,0.000
1606398312.864,-31.250,-24.414,-40.527,-13.184,0.000
1606398312.868,-35.156,-27.832,-33.203,-25.391,0.000
1606398312.872,-26.367,-32.715,-22.461,-24.414,0.000
1606398312.876,-20.996,-39.551,-20.508,-13.672,0.000
1606398312.879,-23.926,-40.527,-23.438,-13.184,0.000
1606398312.883,-38.574,-38.086,-28.809,-21.484,0.000
1606398312.887,-42.969,-34.668,-30.273,-22.461,0.000
1606398312.891,-39.551,-33.203,-29.785,-16.602,0.000
1606398312.895,-25.391,-41.992,-33.691,-8.789,0.000
1606398312.899,-13.672,-41.016,-29.785,-9.277,0.000
1606398312.903,-35.645,-31.738,-26.367,-28.809,0.000
1606398312.907,-53.223,-36.133,-28.320,-37.598,0.000
1606398312.911,-50.293,-38.086,-22.461,-33.691,0.000
1606398312.915,-38.086,-31.250,-17.090,-28.809,0.000
1606398312.918,-36.133,-30.273,-22.949,-23.926,0.000
1606398312.922,-38.086,-34.668,-31.738,-26.855,0.000
1606398312.926,-36.133,-32.227,-33.691,-27.832,0.000
1606398312.930,-34.180,-30.273,-29.785,-19.043,0.000
1606398312.934,-26.855,-35.645,-29.785,-15.137,0.000
1606398312.938,-20.996,-35.156,-40.527,-20.508,0.000
1606398312.942,-23.926,-31.738,-39.551,-24.902,0.000
1606398312.946,-30.273,-32.227,-27.344,-30.273,0.000
1606398312.950,-25.391,-26.367,-25.391,-20.996,0.000
1606398312.954,-20.996,-24.414,-30.273,-14.160,0.000
1606398312.958,-23.438,-30.762,-36.133,-21.484,0.000
1606398312.961,-27.832,-31.250,-36.133,-27.344,0.000
1606398312.965,-36.621,-33.203,-33.691,-29.785,0.000
1606398312.969,-35.645,-28.809,-27.832,-21.973,0.000
1606398312.973,-25.391,-25.879,-25.391,-8.789,0.000
1606398312.977,-27.832,-32.227,-30.273,-12.695,0.000
1606398312.981,-38.574,-39.062,-40.039,-28.809,0.000
1606398312.985,-43.457,-43.457,-42.480,-31.738,0.000
1606398312.989,-40.039,-32.227,-37.109,-32.715,0.000
1606398312.993,-34.668,-15.625,-40.527,-37.109,0.000
1606398312.997,-34.180,-21.973,-41.016,-33.203,0.000
1606398313.001,-34.668,-30.273,-37.598,-32.715,0.000
1606398313.004,-43.945,-27.832,-45.410,-41.016,0.000
1606398313.008,-48.828,-26.367,-44.922,-40.039,0.000
1606398313.012,-37.598,-36.133,-33.691,-26.367,0.000
1606398313.016,-28.320,-50.781,-36.133,-21.484,0.000
1606398313.020,-30.273,-38.086,-38.086,-33.203,0.000
1606398313.024,-37.109,-21.973,-30.273,-42.969,0.000
1606398313.028,-37.598,-27.344,-27.832,-39.062,0.000
1606398313.032,-29.785,-24.414,-34.668,-21.484,0.000
1606398313.036,-24.902,-15.625,-29.785,-18.555,0.000
1606398313.040,-32.715,-26.855,-19.531,-31.738,0.000
1606398313.043,-50.293,-36.621,-21.484,-35.645,0.000
1606398313.047,-52.734,-37.109,-28.320,-31.738,0.000
1606398313.051,-40.039,-34.668,-30.762,-32.227,0.000
1606398313.055,-32.715,-38.574,-25.879,-28.320,0.000
1606398313.059,-29.785,-43.945,-20.508,-22.949,0.000
1606398313.063,-36.133,-35.645,-25.391,-30.273,0.000
1606398313.067,-42.969,-39.551,-33.203,-42.969,0.000
1606398313.071,-38.086,-34.180,-35.156,-38.086,0.000
1606398313.075,-26.855,-29.785,-29.785,-27.344,0.000
1606398313.079,-24.902,-31.738,-20.508,-28.320,0.000
1606398313.083,-40.039,-26.855,-20.996,-44.922,0.000
1606398313.086,-50.781,-31.738,-21.484,-55.664,0.000
1606398313.090,-52.734,-27.832,-21.484,-52.734,0.000
1606398313.094,-49.805,-20.996,-21.484,-46.387,0.000
1606398313.098,-51.758,-24.414,-21.484,-57.617,0.000
1606398313.102,-56.641,-24.414,-19.531,-67.383,0.000
1606398313.106,-56.152,-21.973,-16.113,-60.547,0.000
1606398313.110,-61.035,-20.020,-20.508,-59.570,0.000
1606398313.114,-65.430,-14.648,-21.484,-59.570,0.000
1606398313.118,-69.336,-20.996,-17.578,-62.012,0.000
1606398313.122,-87.891,-26.367,-16.113,-78.125,0.000
1606398313.126,-105.957,-20.996,-12.695,-88.379,0.000
1606398313.129,-112.305,-17.090,-9.766,-91.309,0.000
1606398313.133,-104.004,-23.438,-13.672,-83.008,0.000
1606398313.137,-104.004,-24.902,-12.695,-75.684,0.000
1606398313.141,-125.000,-18.066,-6.348,-89.844,0.000
1606398313.145,-137.695,-21.484,-3.906,-111.328,0.000
1606398313.149,-125.000,-16.602,0.000,-108.887,0.000
1606398313.153,-116.699,-12.695,-2.930,-104.004,0.000
1606398313.157,-112.793,-8.301,-6.836,-107.910,0.000
1606398313.161,-116.211,-7.324,-0.488,-114.746,0.000
1606398313.165,-122.559,-16.113,-5.859,-117.676,0.000
1606398313.168,-112.793,-19.531,-10.254,-110.352,0.000
1606398313.172,-102.539,-21.973,-6.836,-102.539,0.000
1606398313.176,-96.191,-27.344,-8.789,-94.238,0.000
1606398313.180,-89.844,-32.227,-10.254,-83.984,0.000
1606398313.184,-87.402,-29.785,-7.324,-81.543,0.000
1606398313.188,-84.473,-24.414,-12.207,-80.078,0.000
1606398313.192,-66.895,-27.344,-27.344,-62.988,0.000
1606398313.196,-46.875,-25.391,-28.320,-50.781,0.000
1606398313.200,-40.039,-25.391,-18.066,-45.410,0.000
1606398313.204,-41.504,-32.715,-25.391,-39.062,0.000
1606398313.208,-34.668,-40.039,-38.086,-32.227,0.000
1606398313.211,-20.996,-45.898,-30.273,-20.996,0.000
1606398313.215,-11.230,-51.270,-29.297,-7.812,0.000
1606398313.219,-4.883,-51.270,-37.598,-1.465,0.000
1606398313.223,-4.883,-53.711,-36.621,-0.977,0.000
1606398313.227,0.000,-58.594,-38.086,5.371,0.000
1606398313.231,10.254,-49.316,-51.270,7.812,0.000
1606398313.235,21.484,-43.945,-54.688,15.625,0.000
1606398313.239,22.949,-39.062,-44.922,17.578,0.000
1606398313.243,11.719,-41.992,-44.434,3.906,0.000
1606398313.247,11.230,-45.410,-47.852,7.324,0.000
1606398313.251,19.531,-45.410,-46.875,17.090,0.000
1606398313.254,25.391,-48.340,-43.945,23.438,0.000
1606398313.258,25.879,-46.875,-47.363,22.949,0.000
1606398313.262,20.020,-42.969,-57.129,15.625,0.000
1606398313.266,19.531,-39.062,-47.852,17.090,0.000
1606398313.270,25.391,-42.969,-36.133,29.297,0.000
1606398313.274,29.785,-35.645,-38.086,30.762,0.000
1606398313.278,28.809,-21.973,-50.781,23.926,0.000
1606398313.282,21.484,-33.691,-57.129,21.973,0.000
1606398313.286,8.789,-43.945,-48.828,18.555,0.000
1606398313.290,2.441,-39.062,-42.480,12.207,0.000
1606398313.293,7.812,-40.039,-43.457,9.277,0.000
1606398313.297,10.254,-40.527,-45.410,5.859,0.000
1606398313.301,-1.465,-37.109,-46.875,-1.953,0.000
1606398313.305,-7.812,-39.062,-47.363,-6.836,0.000
1606398313.309,-6.348,-41.992,-49.316,-10.254,0.000
1606398313.313,-1.953,-44.434,-52.734,-3.906,0.000
1606398313.317,-2.441,-48.340,-53.711,3.418,0.000
1606398313.321,-7.812,-38.086,-49.805,-3.418,0.000
1606398313.325,-10.742,-33.691,-41.504,-3.906,0.000
1606398313.329,-7.812,-37.109,-41.016,-0.977,0.000
1606398313.333,-3.418,-33.691,-42.969,2.441,0.000
1606398313.336,-1.465,-30.273,-44.434,2.441,0.000
1606398313.340,-5.371,-30.762,-45.410,2.441,0.000
1606398313.344,-11.719,-34.180,-40.039,2.441,0.000
1606398313.348,-8.789,-30.273,-36.133,4.395,0.000
1606398313.352,-0.488,-27.832,-38.574,10.742,0.000
1606398313.356,3.906,-25.391,-37.598,15.137,0.000
1606398313.360,-1.953,-29.785,-28.809,17.578,0.000
1606398313.364,-17.090,-31.738,-31.738,1.465,0.000
1606398313.368,-25.391,-24.902,-40.527,-9.277,0.000
1606398313.372,-16.113,-25.391,-37.109,-1.953,0.000
1606398313.376,-5.371,-26.855,-27.344,2.930,0.000
1606398313.379,-11.719,-27.832,-36.621,-0.977,0.000
1606398313.383,-26.367,-27.832,-42.969,-5.371,0.000
1606398313.387,-31.250,-32.715,-32.715,-5.859,0.000
1606398313.391,-25.391,-28.809,-32.715,1.953,0.000
1606398313.395,-13.184,-22.949,-27.832,12.695,0.000
1606398313.399,-13.184,-30.273,-22.949,5.859,0.000
1606398313.403,-23.926,-42.969,-27.344,-2.441,0.000
1606398313.407,-25.391,-41.016,-30.762,-4.883,0.000
1606398313.411,-16.113,-31.250,-39.062,-7.812,0.000
1606398313.415,-15.137,-37.109,-43.945,-7.812,0.000
1606398313.418,-20.996,-40.527,-42.969,-12.207,0.000
1606398313.422,-28.809,-40.039,-43.457,-20.996,0.000
1606398313.426,-33.691,-37.598,-37.109,-25.391,0.000
1606398313.430,-29.785,-33.203,-26.367,-23.926,0.000
1606398313.434,-19.531,-29.297,-22.949,-19.043,0.000
1606398313.438,-19.043,-31.250,-31.738,-16.113,0.000
1606398313.442,-26.367,-38.574,-36.133,-21.484,0.000
1606398313.446,-28.809,-37.109,-30.762,-22.461,0.000
1606398313.450,-25.391,-31.250,-23.438,-11.230,0.000
1606398313.454,-23.438,-20.996,-27.344,-13.672,0.000
1606398313.458,-24.414,-16.602,-38.086,-20.508,0.000
1606398313.461,-29.297,-25.391,-34.180,-24.414,0.000
1606398313.465,-36.621,-28.320,-29.297,-29.297,0.000
1606398313.469,-32.227,-27.832,-39.062,-26.855,0.000
1606398313.473,-24.414,-29.785,-42.969,-24.902,0.000
1606398313.477,-24.902,-32.227,-38.086,-16.602,0.000
1606398313.481,-34.668,-30.762,-35.645,-20.508,0.000
1606398313.485,-41.504,-29.297,-34.668,-29.785,0.000
1606398313.489,-36.621,-35.156,-31.250,-24.902,0.000
1606398313.493,-25.879,-34.668,-32.715,-17.578,0.000
1606398313.497,-20.996,-33.691,-40.039,-12.695,0.000
1606398313.501,-26.367,-26.855,-39.551,-20.508,0.000
1606398313.504,-33.691,-19.043,-33.691,-29.297,0.000
1606398313.508,-28.320,-23.926,-26.367,-23.438,0.000
1606398313.512,-20.508,-21.484,-26.855,-20.508,0.000
1606398313.516,-19.043,-16.602,-34.180,-24.414,0.000
1606398313.520,-20.996,-24.902,-34.180,-23.438,0.000
1606398313.524,-28.320,-32.227,-30.762,-22.949,0.000
1606398313.528,-29.297,-31.738,-30.762,-23.926,0.000
1606398313.532,-23.438,-29.297,-34.668,-21.484,0.000
1606398313.536,-19.043,-28.809,-34.180,-26.367,0.000
1606398313.540,-20.020,-28.320,-30.273,-26.855,0.000
1606398313.543,-28.809,-28.320,-31.250,-27.344,0.000
1606398313.547,-33.691,-24.902,-34.668,-30.762,0.000
1606398313.551,-29.297,-23.438,-36.133,-26.367,0.000
1606398313.555,-26.367,-32.715,-28.809,-20.020,0.000
1606398313.559,-29.785,-31.738,-27.832,-28.320,0.000
1606398313.563,-32.715,-24.902,-31.738,-31.250,0.000
1606398313.567,-32.227,-26.855,-37.598,-26.367,0.000
1606398313.571,-30.273,-24.902,-48.828,-23.926,0.000
1606398313.575,-23.438,-21.973,-46.875,-21.484,0.000
1606398313.579,-22.461,-25.879,-32.715,-26.367,0.000
1606398313.583,-25.391,-28.320,-27.832,-28.320,0.000
1606398313.586,-30.273,-28.809,-26.367,-28.320,0.000
1606398313.590,-29.297,-30.273,-24.414,-22.461,0.000
1606398313.594,-23.926,-29.785,-28.809,-16.602,0.000
1606398313.598,-20.508,-30.762,-27.832,-16.602,0.000
1606398313.602,-24.414,-27.832,-30.273,-23.438,0.000
1606398313.606,-35.156,-21.484,-38.086,-31.250,0.000
1606398313.610,-38.574,-31.250,-34.180,-38.086,0.000
1606398313.614,-31.250,-35.645,-29.297,-30.762,0.000
1606398313.618,-24.414,-27.832,-29.785,-19.043,0.000
1606398313.622,-39.062,-34.180,-32.715,-30.762,0.000
1606398313.626,-49.316,-42.480,-30.273,-33.203,0.000
1606398313.629,-41.504,-34.668,-21.973,-20.020,0.000
1606398313.633,-39.551,-29.785,-23.438,-21.484,0.000
1606398313.637,-35.645,-26.855,-34.180,-25.879,0.000
1606398313.641,-34.180,-27.832,-36.133,-20.020,0.000
1606398313.645,-39.551,-41.992,-30.762,-22.461,0.000
1606398313.649,-41.016,-37.109,-22.949,-28.320,0.000
1606398313.653,-34.180,-22.949,-22.461,-21.484,0.000
1606398313.657,-25.879,-33.203,-31.250,-14.648,0.000
1606398313.661,-22.949,-36.133,-29.785,-16.113,0.000
1606398313.665,-31.250,-30.273,-29.297,-27.832,0.000
1606398313.668,-35.645,-31.738,-37.109,-32.715,0.000
1606398313.672,-22.461,-31.250,-39.062,-21.973,0.000
1606398313.676,-16.113,-30.762,-28.320,-13.184,0.000
1606398313.680,-20.996,-28.320,-17.578,-16.602,0.000
1606398313.684,-28.809,-29.785,-20.508,-19.531,0.000
1606398313.688,-37.109,-33.203,-24.902,-20.508,0.000
1606398313.692,-33.691,-34.180,-29.785,-19.043,0.000
1606398313.696,-28.809,-28.320,-37.109,-15.625,0.000
1606398313.700,-32.715,-33.691,-35.156,-15.137,0.000
1606398313.704,-39.062,-39.062,-27.832,-22.461,0.000
1606398313.708,-38.574,-35.156,-32.227,-29.785,0.000
1606398313.711,-32.227,-25.391,-38.086,-23.926,0.000
1606398313.715,-26.367,-21.973,-27.832,-14.648,0.000
1606398313.719,-30.273,-31.250,-23.926,-20.020,0.000
1606398313.723,-39.551,-32.227,-36.133,-33.691,0.000
1606398313.727,-41.992,-31.250,-42.480,-31.738,0.000
1606398313.731,-33.691,-32.227,-44.922,-20.508,0.000
1606398313.735,-22.949,-33.691,-43.457,-15.137,0.000
1606398313.739,-20.996,-26.855,-36.621,-19.043,0.000
1606398313.743,-27.344,-22.949,-26.367,-28.320,0.000
1606398313.747,-36.133,-27.344,-20.020,-27.344,0.000
1606398313.751,-29.297,-21.973,-17.090,-14.160,0.000
1606398313.754,-17.090,-17.090,-19.531,-7.812,0.000
1606398313.758,-17.090,-19.531,-25.879,-14.648,0.000
1606398313.762,-24.414,-27.832,-26.855,-23.926,0.000
1606398313.766,-28.320,-32.715,-24.902,-27.832,0.000
1606398313.770,-27.832,-22.461,-24.902,-24.902,0.000
1606398313.774,-19.531,-12.695,-27.832,-18.066,0.000
1606398313.778,-20.996,-25.879,-26.367,-13.672,0.000
1606398313.782,-35.156,-25.391,-20.508,-18.066,0.000
1606398313.786,-41.016,-9.277,-23.438,-26.855,0.000
1606398313.790,-36.621,-15.625,-26.367,-19.043,0.000
1606398313.793,-32.715,-29.297,-26.367,-17.090,0.000
1606398313.797,-31.250,-32.227,-28.320,-19.043,0.000
1606398313.801,-36.133,-31.738,-23.438,-23.926,0.000
1606398313.805,-39.551,-31.738,-31.738,-26.367,0.000
1606398313.809,-38.086,-27.832,-41.504,-21.973,0.000
1606398313.813,-34.668,-30.762,-31.738,-21.973,0.000
1606398313.817,-32.715,-28.320,-25.879,-20.996,0.000
1606398313.821,-39.551,-23.438,-21.973,-23.438,0.000
1606398313.825,-54.688,-35.156,-19.531,-34.180,0.000
1606398313.829,-54.199,-35.156,-24.902,-36.621,0.000
1606398313.833,-41.016,-25.879,-31.250,-35.645,0.000
1606398313.836,-34.180,-27.832,-35.156,-38.086,0.000
1606398313.840,-32.227,-28.320,-39.062,-29.297,0.000
1606398313.844,-37.109,-24.414,-44.434,-41.504,0.000
1606398313.848,-40.039,-27.832,-42.969,-51.270,0.000
1606398313.852,-31.738,-26.855,-34.668,-38.574,0.000
1606398313.856,-19.531,-25.879,-27.344,-31.250,0.000
1606398313.860,-15.137,-27.344,-22.949,-32.227,0.000
1606398313.864,-21.973,-25.391,-22.461,-29.297,0.000
1606398313.868,-25.879,-34.668,-28.320,-23.438,0.000
1606398313.872,-28.809,-36.621,-31.738,-18.555,0.000
1606398313.876,-40.039,-28.320,-32.715,-16.113,0.000
1606398313.879,-49.805,-33.691,-30.273,-23.926,0.000
1606398313.883,-55.664,-50.781,-29.297,-30.762,0.000
1606398313.887,-59.570,-46.875,-34.180,-32.227,0.000
1606398313.891,-50.781,-31.738,-25.879,-23.438,0.000
1606398313.895,-24.414,-37.109,-10.742,-0.488,0.000
1606398313.899,-12.695,-33.691,-14.160,0.000,0.000
1606398313.903,-31.250,-17.090,-33.203,-31.250,0.000
1606398313.907,-40.039,-14.648,-46.387,-46.387,0.000
1606398313.911,-25.391,-19.531,-45.898,-35.156,0.000
1606398313.915,-17.578,-22.949,-40.039,-20.020,0.000
1606398313.918,-17.090,-20.020,-37.598,-18.555,0.000
1606398313.922,-15.625,-13.184,-34.180,-23.926,0.000
1606398313.926,-24.414,-17.090,-39.551,-24.414,0.000
1606398313.930,-16.113,-30.273,-40.527,-19.043,0.000
1606398313.934,-7.324,-30.762,-40.527,-13.672,0.000
1606398313.938,-10.254,-25.391,-40.527,-10.742,0.000
1606398313.942,-16.602,-25.879,-34.180,-23.438,0.000
1606398313.946,-26.855,-22.949,-29.297,-29.297,0.000
1606398313.950,-27.344,-27.344,-27.832,-21.484,0.000
1606398313.954,-19.531,-35.645,-31.250,-18.555,0.000
1606398313.958,-15.625,-38.086,-29.297,-16.113,0.000
1606398313.961,-22.949,-29.297,-36.621,-20.996,0.000
1606398313.965,-29.785,-20.996,-44.922,-28.809,0.000
1606398313.969,-31.250,-23.926,-39.551,-33.203,0.000
1606398313.973,-24.902,-34.668,-26.855,-25.879,0.000
1606398313.977,-23.926,-33.203,-29.297,-20.020,0.000
1606398313.981,-30.762,-23.926,-33.203,-30.273,0.000
1606398313.985,-37.598,-27.344,-28.320,-35.156,0.000
1606398313.989,-33.691,-31.250,-29.785,-32.227,0.000
1606398313.993,-20.996,-26.855,-33.203,-24.902,0.000
1606398313.997,-18.066,-24.414,-34.668,-18.066,0.000
1606398314.001,-18.066,-25.391,-41.992,-15.625,0.000
1606398314.004,-25.391,-24.414,-45.410,-24.414,0.000
1606398314.008,-27.344,-27.344,-31.250,-27.832,0.000
1606398314.012,-25.391,-34.668,-26.855,-21.484,0.000
1606398314.016,-22.949,-36.621,-36.621,-16.602,0.000
1606398314.020,-24.414,-44.922,-37.109,-10.254,0.000
1606398314.024,-31.250,-38.574,-28.809,-15.625,0.000
1606398314.028,-33.691,-21.973,-31.738,-20.020,0.000
1606398314.032,-23.926,-26.367,-35.645,-9.766,0.000
1606398314.036,-14.160,-33.691,-34.668,-6.836,0.000
1606398314.040,-17.578,-30.762,-33.203,-14.160,0.000
1606398314.043,-33.691,-31.738,-29.785,-22.461,0.000
1606398314.047,-38.086,-41.016,-27.832,-28.809,0.000
1606398314.051,-25.879,-34.180,-33.691,-26.855,0.000
1606398314.055,-19.043,-25.391,-38.086,-17.578,0.000
1606398314.059,-20.020,-30.273,-33.203,-22.461,0.000
1606398314.063,-27.832,-33.691,-22.949,-34.180,0.000
1606398314.067,-35.645,-33.691,-24.902,-28.809,0.000
1606398314.071,-31.250,-22.949,-26.855,-24.902,0.000
1606398314.075,-18.066,-22.949,-24.902,-24.414,0.000
1606398314.079,-10.742,-29.785,-27.344,-21.973,0.000
1606398314.083,-18.066,-26.855,-31.250,-21.484,0.000
1606398314.086,-23.926,-24.414,-36.133,-22.461,0.000
1606398314.090,-22.461,-26.855,-31.250,-20.508,0.000
1606398314.094,-15.137,-25.391,-33.691,-18.066,0.000
1606398314.098,-7.324,-25.391,-41.992,-17.578,0.000
1606398314.102,-19.531,-27.832,-36.133,-26.855,0.000
1606398314.106,-30.762,-32.227,-25.879,-29.785,0.000
1606398314.110,-20.508,-33.203,-21.484,-21.973,0.000
1606398314.114,-19.043,-29.785,-22.949,-23.438,0.000
1606398314.118,-21.973,-30.762,-30.762,-20.020,0.000
1606398314.122,-29.785,-32.227,-29.785,-25.391,0.000
1606398314.126,-37.598,-42.480,-25.391,-37.598,0.000
1606398314.129,-31.738,-37.109,-28.809,-32.227,0.000
1606398314.133,-29.297,-23.438,-29.785,-28.320,0.000
1606398314.137,-27.832,-26.367,-24.902,-21.973,0.000
1606398314.141,-34.180,-26.367,-24.902,-22.949,0.000
1606398314.145,-45.410,-20.508,-38.574,-30.273,0.000
1606398314.149,-41.504,-19.531,-38.574,-27.344,0.000
1606398314.153,-29.785,-31.250,-29.785,-19.531,0.000
1606398314.157,-23.438,-33.691,-29.297,-22.461,0.000
1606398314.161,-26.367,-23.926,-31.738,-28.809,0.000
1606398314.165,-31.738,-29.785,-32.227,-29.785,0.000
1606398314.168,-27.832,-36.621,-26.367,-20.508,0.000
1606398314.172,-19.531,-28.320,-28.320,-17.090,0.000
1606398314.176,-15.137,-20.508,-31.250,-20.020,0.000
1606398314.180,-20.020,-20.996,-31.738,-18.555,0.000
1606398314.184,-32.715,-21.484,-44.434,-26.855,0.000
1606398314.188,-39.062,-25.391,-39.551,-35.645,0.000
1606398314.192,-33.691,-34.668,-20.996,-29.785,0.000
1606398314.196,-27.832,-42.480,-21.484,-25.879,0.000
1606398314.200,-28.320,-52.246,-24.414,-20.996,0.000
1606398314.204,-38.086,-43.945,-26.855,-27.832,0.000
1606398314.208,-44.922,-19.043,-36.133,-33.691,0.000
1606398314.211,-37.109,-20.020,-28.809,-23.926,0.000
1606398314.215,-29.297,-26.367,-21.484,-22.461,0.000
1606398314.219,-29.297,-20.508,-30.762,-25.879,0.000
1606398314.223,-39.062,-28.809,-26.855,-35.645,0.000
1606398314.227,-46.387,-44.922,-24.902,-38.086,0.000
1606398314.231,-40.527,-40.527,-31.738,-32.227,0.000
1606398314.235,-35.156,-27.832,-35.645,-26.367,0.000
1606398314.239,-40.039,-19.531,-40.527,-27.832,0.000
1606398314.243,-41.504,-20.996,-38.086,-33.691,0.000
1606398314.247,-41.992,-28.320,-34.668,-35.645,0.000
1606398314.251,-33.691,-29.785,-36.133,-27.832,0.000
1606398314.254,-21.484,-24.902,-33.691,-22.461,0.000
1606398314.258,-18.066,-28.320,-36.133,-21.973,0.000
1606398314.262,-24.902,-28.809,-36.133,-20.508,0.000
1606398314.266,-38.086,-16.113,-28.320,-30.762,0.000
1606398314.270,-35.156,-13.672,-26.855,-31.250,0.000
1606398314.274,-26.367,-16.602,-23.926,-21.484,0.000
1606398314.278,-26.367,-20.508,-26.855,-21.973,0.000
1606398314.282,-32.227,-26.855,-36.133,-29.785,0.000
1606398314.286,-46.387,-33.691,-39.062,-35.156,0.000
1606398314.290,-44.922,-36.621,-34.668,-25.391,0.000
1606398314.293,-31.738,-29.785,-26.855,-20.020,0.000
1606398314.297,-24.414,-25.879,-20.020,-23.438,0.000
1606398314.301,-29.297,-33.203,-25.879,-22.949,0.000
1606398314.305,-29.785,-29.785,-35.645,-22.949,0.000
1606398314.309,-32.227,-20.508,-32.715,-24.902,0.000
1606398314.313,-29.297,-18.555,-23.926,-22.949,0.000
1606398314.317,-16.602,-25.391,-20.020,-23.438,0.000
1606398314.321,-20.996,-31.738,-21.484,-32.227,0.000
1606398314.325,-39.551,-31.250,-27.832,-41.992,0.000
1606398314.329,-40.527,-31.738,-33.203,-41.016,0.000
1606398314.333,-30.762,-37.109,-37.109,-32.715,0.000
1606398314.336,-20.996,-35.645,-31.738,-20.508,0.000
1606398314.340,-21.484,-29.785,-31.250,-17.578,0.000
1606398314.344,-29.297,-24.902,-39.551,-24.902,0.000
1606398314.348,-30.273,-26.855,-34.668,-24.902,0.000
1606398314.352,-23.926,-28.809,-27.832,-19.043,0.000
1606398314.356,-15.625,-20.996,-21.484,-20.508,0.000
1606398314.360,-17.578,-25.391,-24.414,-28.809,0.000
1606398314.364,-26.855,-32.715,-35.156,-32.227,0.000
1606398314.368,-29.785,-29.297,-41.016,-29.297,0.000
1606398314.372,-28.320,-25.879,-43.457,-27.344,0.000
1606398314.376,-11.719,-32.715,-47.852,-18.555,0.000
1606398314.379,-10.254,-38.086,-41.504,-11.230,0.000
1606398314.383,-41.504,-29.297,-22.949,-29.297,0.000
1606398314.387,-54.199,-28.809,-20.020,-38.574,0.000
1606398314.391,-49.805,-29.785,-25.879,-33.203,0.000
1606398314.395,-37.598,-36.621,-26.367,-27.344,0.000
1606398314.399,-31.250,-40.039,-23.926,-26.855,0.000
1606398314.403,-46.875,-28.809,-24.902,-39.062,0.000
1606398314.407,-48.828,-31.250,-22.461,-39.062,0.000
1606398314.411,-38.086,-36.133,-12.207,-31.738,0.000
1606398314.415,-34.668,-34.180,-15.137,-31.250,0.000
1606398314.418,-31.738,-37.109,-25.391,-33.691,0.000
1606398314.422,-35.156,-36.133,-37.598,-38.574,0.000
1606398314.426,-43.945,-28.809,-38.574,-42.969,0.000
1606398314.430,-43.945,-32.715,-34.668,-36.621,0.000
1606398314.434,-31.738,-34.668,-41.504,-22.949,0.000
1606398314.438,-25.879,-36.621,-43.457,-18.555,0.000
1606398314.442,-31.250,-44.922,-30.273,-30.273,0.000
1606398314.446,-39.062,-31.250,-17.578,-37.109,0.000
1606398314.450,-34.180,-19.043,-22.461,-18.066,0.000
1606398314.454,-24.902,-22.461,-34.668,-4.395,0.000
1606398314.458,-20.996,-17.578,-36.133,-18.555,0.000
1606398314.461,-21.484,-12.207,-41.504,-18.555,0.000
1606398314.465,-27.344,-26.367,-48.340,-25.879,0.000
1606398314.469,-43.945,-40.039,-30.762,-47.852,0.000
1606398314.473,-49.316,-38.574,-12.695,-46.387,0.000
1606398314.477,-44.434,-41.504,-16.113,-37.598,0.000
1606398314.481,-45.898,-36.621,-20.020,-34.668,0.000
1606398314.485,-46.387,-39.062,-25.391,-35.156,0.000
1606398314.489,-47.363,-34.180,-40.527,-39.062,0.000
1606398314.493,-41.992,-25.879,-38.086,-32.715,0.000
1606398314.497,-36.133,-35.156,-33.691,-28.320,0.000
1606398314.501,-37.109,-35.156,-45.410,-32.715,0.000
1606398314.504,-43.457,-26.855,-44.922,-42.480,0.000
1606398314.508,-50.293,-32.227,-32.227,-45.898,0.000
1606398314.512,-39.062,-37.598,-25.879,-33.203,0.000
1606398314.516,-21.484,-24.414,-23.438,-17.578,0.000
1606398314.520,-25.391,-17.578,-30.762,-23.438,0.000
1606398314.524,-30.762,-25.879,-33.691,-30.762,0.000
1606398314.528,-25.879,-38.086,-31.250,-17.090,0.000
1606398314.532,-18.555,-38.574,-24.902,-9.277,0.000
1606398314.536,-14.160,-26.367,-24.902,-17.090,0.000
1606398314.540,-23.438,-28.809,-35.156,-27.344,0.000
1606398314.543,-35.156,-37.598,-30.273,-36.621,0.000
1606398314.547,-37.109,-26.855,-25.879,-33.203,0.000
1606398314.551,-26.367,-23.438,-34.180,-14.648,0.000
1606398314.555,-18.555,-25.879,-41.016,-10.254,0.000
1606398314.559,-22.949,-26.367,-45.410,-21.973,0.000
1606398314.563,-28.320,-34.668,-28.320,-34.668,0.000
1606398314.567,-38.086,-41.504,-14.648,-39.062,0.000
1606398314.571,-40.039,-32.227,-18.066,-32.227,0.000
1606398314.575,-23.438,-40.527,-21.973,-20.020,0.000
1606398314.579,-21.484,-39.551,-35.645,-16.602,0.000
1606398314.583,-26.855,-19.531,-47.363,-25.391,0.000
1606398314.586,-30.762,-23.438,-36.133,-28.320,0.000
1606398314.590,-35.645,-29.297,-28.320,-20.508,0.000
1606398314.594,-23.438,-23.926,-28.809,-10.742,0.000
1606398314.598,-18.066,-21.484,-18.066,-15.625,0.000
1606398314.602,-26.855,-21.973,-19.531,-25.879,0.000
1606398314.606,-32.227,-26.367,-30.762,-31.738,0.000
1606398314.610,-28.809,-30.762,-39.551,-31.250,0.000
1606398314.614,-20.508,-30.762,-41.016,-29.785,0.000
1606398314.618,-20.020,-32.227,-32.715,-33.691,0.000
1606398314.622,-31.250,-34.180,-35.156,-40.527,0.000
1606398314.626,-37.598,-31.738,-27.832,-42.969,0.000
1606398314.629,-30.762,-23.438,-16.113,-32.715,0.000
1606398314.633,-17.090,-28.809,-17.578,-5.859,0.000
1606398314.637,-11.719,-30.762,-22.949,9.766,0.000
1606398314.641,-23.926,-20.508,-30.273,-0.977,0.000
1606398314.645,-41.504,-22.949,-32.715,-13.184,0.000
1606398314.649,-56.152,-32.227,-29.785,-22.949,0.000
1606398314.653,-47.363,-28.809,-37.109,-19.043,0.000
1606398314.657,-32.715,-20.020,-41.992,-11.230,0.000
1606398314.661,-35.645,-21.484,-30.273,-22.949,0.000
1606398314.665,-37.598,-26.855,-26.367,-29.297,0.000
1606398314.668,-38.086,-23.926,-29.785,-24.902,0.000
1606398314.672,-30.273,-16.113,-24.902,-22.949,0.000
1606398314.676,-22.949,-20.508,-20.996,-21.973,0.000
1606398314.680,-30.273,-34.180,-26.367,-28.320,0.000
1606398314.684,-40.527,-29.785,-33.691,-43.457,0.000
1606398314.688,-39.551,-28.809,-36.133,-43.945,0.000
1606398314.692,-27.344,-36.621,-39.062,-31.250,0.000
1606398314.696,-20.508,-30.762,-34.180,-28.809,0.000
1606398314.700,-27.344,-23.926,-29.785,-33.203,0.000
1606398314.704,-32.715,-23.438,-36.133,-38.574,0.000
1606398314.708,-29.785,-26.367,-36.621,-28.320,0.000
1606398314.711,-23.438,-28.320,-25.879,-25.879,0.000
1606398314.715,-19.531,-27.832,-21.484,-32.227,0.000
1606398314.719,-23.438,-27.344,-21.973,-30.762,0.000
1606398314.723,-32.227,-37.109,-28.809,-30.273,0.000
1606398314.727,-40.039,-35.645,-46.875,-28.809,0.000
1606398314.731,-38.086,-21.484,-48.828,-28.320,0.000
1606398314.735,-29.297,-28.320,-30.762,-28.320,0.000
1606398314.739,-31.738,-33.203,-35.645,-33.691,0.000
1606398314.743,-38.086,-27.832,-40.527,-37.109,0.000
1606398314.747,-40.527,-23.926,-29.297,-34.180,0.000
1606398314.751,-34.180,-25.879,-22.461,-29.297,0.000
1606398314.754,-22.949,-34.668,-31.250,-19.531,0.000
1606398314.758,-21.973,-38.086,-37.109,-17.090,0.000
1606398314.762,-37.598,-34.180,-26.855,-29.297,0.000
1606398314.766,-42.480,-28.320,-26.367,-42.969,0.000
1606398314.770,-33.203,-31.250,-24.414,-34.668,0.000
1606398314.774,-27.832,-30.762,-21.484,-24.902,0.000
1606398314.778,-24.902,-18.066,-27.344,-29.785,0.000
1606398314.782,-33.691,-23.926,-33.203,-32.227,0.000
1606398314.786,-48.340,-36.133,-30.273,-37.598,0.000
1606398314.790,-48.828,-35.645,-35.645,-30.762,0.000
1606398314.793,-33.691,-34.180,-46.387,-28.320,0.000
1606398314.797,-30.762,-31.738,-45.898,-26.855,0.000
1606398314.801,-41.504,-27.832,-37.598,-25.879,0.000
1606398314.805,-41.016,-21.484,-28.320,-34.180,0.000
1606398314.809,-35.156,-24.902,-21.973,-33.203,0.000
1606398314.813,-23.926,-30.762,-17.578,-20.996,0.000
1606398314.817,-17.578,-28.320,-22.461,-16.113,0.000
1606398314.821,-23.438,-17.578,-35.645,-28.809,0.000
1606398314.825,-30.273,-13.672,-41.504,-32.715,0.000
1606398314.829,-32.715,-22.949,-31.738,-30.762,0.000
1606398314.833,-25.391,-33.691,-24.414,-21.973,0.000
1606398314.836,-18.066,-27.344,-28.809,-16.113,0.000
1606398314.840,-26.855,-23.438,-29.297,-18.555,0.000
1606398314.844,-39.551,-29.297,-25.391,-25.879,0.000
1606398314.848,-40.527,-29.785,-26.855,-31.250,0.000
1606398314.852,-31.250,-29.297,-41.992,-25.391,0.000
1606398314.856,-20.508,-29.785,-54.199,-20.508,0.000
1606398314.860,-21.973,-40.039,-35.645,-20.508,0.000
1606398314.864,-37.598,-37.598,-11.719,-31.738,0.000
1606398314.868,-39.062,-13.184,-8.301,-33.203,0.000
1606398314.872,-28.809,-16.602,-21.973,-23.926,0.000
1606398314.876,-20.508,-22.461,-33.203,-20.020,0.000
1606398314.879,-14.648,-9.277,-35.156,-14.648,0.000
1606398314.883,-20.020,-13.184,-27.344,-23.926,0.000
1606398314.887,-30.273,-29.297,-18.066,-36.621,0.000
1606398314.891,-29.785,-32.715,-21.973,-23.926,0.000
1606398314.895,-18.066,-34.180,-32.715,-16.602,0.000
1606398314.899,-16.602,-34.668,-32.227,-19.531,0.000
1606398314.903,-31.250,-38.574,-24.414,-23.926,0.000
1606398314.907,-42.969,-36.133,-27.832,-30.762,0.000
1606398314.911,-41.504,-28.809,-37.109,-35.645,0.000
1606398314.915,-32.227,-27.832,-32.715,-33.691,0.000
1606398314.918,-29.297,-34.668,-33.691,-29.297,0.000
1606398314.922,-33.203,-35.156,-42.480,-38.574,0.000
1606398314.926,-39.551,-26.855,-43.457,-39.551,0.000
1606398314.930,-41.992,-34.668,-39.062,-27.832,0.000
1606398314.934,-27.344,-39.062,-32.715,-20.996,0.000
1606398314.938,-19.043,-33.203,-29.297,-21.484,0.000
1606398314.942,-29.297,-30.273,-28.320,-25.391,0.000
1606398314.946,-39.551,-31.250,-28.809,-32.227,0.000
1606398314.950,-43.945,-41.992,-30.273,-28.320,0.000
1606398314.954,-38.086,-37.109,-29.297,-19.531,0.000
1606398314.958,-31.738,-20.996,-34.180,-20.996,0.000
1606398314.961,-32.227,-33.691,-41.992,-20.508,0.000
1606398314.965,-38.086,-37.598,-32.227,-26.367,0.000
1606398314.969,-38.086,-23.438,-18.555,-36.133,0.000
1606398314.973,-31.738,-27.344,-17.090,-31.738,0.000
1606398314.977,-25.391,-31.738,-17.090,-25.879,0.000
1606398314.981,-29.785,-27.344,-17.090,-32.227,0.000
1606398314.985,-45.410,-28.809,-21.484,-38.086,0.000
1606398314.989,-40.527,-33.203,-25.391,-28.809,0.000
1606398314.993,-27.344,-38.574,-54.199,-22.949,0.000
1606398314.997,-25.391,-43.945,-60.547,-23.438,0.000
1606398315.001,-34.668,-37.598,-23.926,-25.879,0.000
1606398315.004,-45.410,-31.250,-7.324,-38.086,0.000
1606398315.008,-44.922,-35.645,-11.230,-31.250,0.000
1606398315.012,-37.598,-32.715,-13.672,-16.113,0.000
1606398315.016,-31.250,-26.855,-19.531,-18.555,0.000
1606398315.020,-26.367,-30.273,-32.227,-20.508,0.000
1606398315.024,-31.738,-37.109,-49.316,-27.832,0.000
1606398315.028,-37.598,-39.551,-40.039,-30.762,0.000
1606398315.032,-31.738,-35.156,-25.391,-27.832,0.000
1606398315.036,-31.738,-41.992,-24.414,-27.832,0.000
1606398315.040,-37.109,-39.062,-24.414,-26.855,0.000
1606398315.043,-40.039,-31.250,-26.367,-32.715,0.000
1606398315.047,-42.480,-30.273,-28.320,-34.668,0.000
1606398315.051,-41.016,-34.668,-34.668,-28.320,0.000
1606398315.055,-34.668,-35.156,-34.668,-16.602,0.000
1606398315.059,-27.344,-26.367,-32.715,-18.555,0.000
1606398315.063,-35.156,-28.320,-28.809,-31.738,0.000
1606398315.067,-41.992,-34.668,-24.902,-34.668,0.000
1606398315.071,-31.250,-33.203,-27.832,-25.391,0.000
1606398315.075,-20.996,-26.367,-29.785,-16.602,0.000
1606398315.079,-19.531,-23.926,-27.832,-14.648,0.000
1606398315.083,-30.762,-28.809,-36.133,-22.949,0.000
1606398315.086,-36.621,-32.715,-44.434,-24.414,0.000
1606398315.090,-31.250,-34.180,-35.645,-16.602,0.000
1606398315.094,-29.785,-28.320,-26.855,-15.625,0.000
1606398315.098,-29.785,-27.832,-23.926,-19.531,0.000
1606398315.102,-32.715,-31.250,-23.926,-19.531,0.000
1606398315.106,-37.109,-29.785,-35.156,-20.508,0.000
1606398315.110,-35.156,-33.691,-33.691,-25.879,0.000
1606398315.114,-28.320,-28.809,-24.902,-22.949,0.000
1606398315.118,-24.414,-29.785,-27.832,-25.879,0.000
1606398315.122,-31.250,-31.738,-22.949,-36.133,0.000
1606398315.126,-41.992,-27.344,-16.602,-42.480,0.000
1606398315.129,-41.016,-31.738,-20.508,-44.434,0.000
1606398315.133,-32.715,-30.273,-25.391,-33.691,0.000
1606398315.137,-26.855,-24.414,-27.832,-26.855,0.000
1606398315.141,-29.785,-22.949,-34.668,-24.902,0.000
1606398315.145,-31.738,-28.320,-31.738,-18.555,0.000
1606398315.149,-36.621,-26.855,-22.949,-20.996,0.000
1606398315.153,-37.109,-23.438,-30.273,-26.855,0.000
1606398315.157,-30.273,-34.180,-34.180,-21.484,0.000
1606398315.161,-35.645,-37.598,-27.344,-20.996,0.000
1606398315.165,-46.387,-32.715,-28.809,-34.668,0.000
1606398315.168,-41.504,-24.414,-35.156,-38.086,0.000
1606398315.172,-29.785,-23.438,-33.203,-28.320,0.000
1606398315.176,-23.438,-30.273,-37.109,-22.949,0.000
1606398315.180,-22.461,-26.855,-44.434,-24.414,0.000
1606398315.184,-32.227,-25.879,-33.691,-32.715,0.000
1606398315.188,-37.109,-33.691,-28.320,-33.691,0.000
1606398315.192,-30.762,-35.645,-35.156,-24.414,0.000
1606398315.196,-24.902,-26.367,-29.297,-23.438,0.000
1606398315.200,-24.902,-29.785,-22.949,-24.414,0.000
1606398315.204,-34.668,-35.156,-20.996,-25.391,0.000
1606398315.208,-42.969,-37.109,-22.949,-33.203,0.000
1606398315.211,-40.039,-41.504,-37.109,-35.645,0.000
1606398315.215,-28.809,-33.203,-42.969,-22.461,0.000
1606398315.219,-24.902,-31.250,-47.363,-24.414,0.000
1606398315.223,-32.227,-35.156,-38.086,-32.715,0.000
1606398315.227,-35.645,-31.250,-26.367,-32.715,0.000
1606398315.231,-27.832,-27.344,-30.273,-32.715,0.000
1606398315.235,-18.555,-34.180,-28.809,-24.414,0.000
1606398315.239,-23.926,-36.621,-28.809,-26.367,0.000
1606398315.243,-30.273,-25.879,-40.527,-33.691,0.000
1606398315.247,-32.715,-21.484,-42.969,-24.902,0.000
1606398315.251,-33.691,-22.949,-30.273,-17.578,0.000
1606398315.254,-25.391,-22.461,-33.203,-16.113,0.000
1606398315.258,-22.461,-20.996,-36.133,-14.160,0.000
1606398315.262,-34.668,-27.832,-25.879,-20.508,0.000
1606398315.266,-41.992,-32.227,-20.508,-30.762,0.000
1606398315.270,-35.156,-32.227,-19.043,-28.809,0.000
1606398315.274,-26.367,-32.227,-23.926,-22.949,0.000
1606398315.278,-29.297,-32.227,-27.344,-18.555,0.000
1606398315.282,-36.133,-32.227,-31.738,-21.973,0.000
1606398315.286,-35.645,-27.344,-43.945,-35.156,0.000
1606398315.290,-34.180,-28.809,-40.527,-38.574,0.000
1606398315.293,-33.203,-35.156,-26.367,-34.180,0.000
1606398315.297,-29.785,-32.715,-23.926,-34.180,0.000
1606398315.301,-34.668,-31.250,-26.367,-38.086,0.000
1606398315.305,-39.551,-28.809,-32.227,-34.668,0.000
1606398315.309,-34.180,-24.414,-33.691,-30.273,0.000
1606398315.313,-25.391,-25.391,-32.715,-21.973,0.000
1606398315.317,-17.578,-25.879,-38.574,-12.207,0.000
1606398315.321,-19.043,-24.902,-45.898,-14.648,0.000
1606398315.325,-31.738,-34.180,-32.715,-16.602,0.000
1606398315.329,-40.527,-37.598,-23.438,-19.531,0.000
1606398315.333,-33.203,-21.973,-30.273,-19.531,0.000
1606398315.336,-28.809,-19.043,-26.855,-10.254,0.000
1606398315.340,-30.762,-25.879,-23.926,-10.742,0.000
1606398315.344,-33.691,-17.578,-33.203,-19.043,0.000
1606398315.348,-37.109,-16.113,-43.945,-22.949,0.000
1606398315.352,-28.320,-28.320,-37.598,-17.090,0.000
1606398315.356,-21.484,-23.926,-31.738,-16.113,0.000
1606398315.360,-27.832,-21.484,-32.227,-21.484,0.000
1606398315.364,-36.133,-27.344,-26.855,-26.367,0.000
1606398315.368,-40.039,-30.762,-26.855,-25.391,0.000
1606398315.372,-29.785,-26.367,-33.203,-21.484,0.000
1606398315.376,-19.043,-23.926,-40.039,-17.090,0.000
1606398315.379,-23.926,-30.762,-36.621,-20.996,0.000
1606398315.383,-30.762,-34.180,-25.879,-25.879,0.000
1606398315.387,-31.250,-30.762,-18.555,-19.531,0.000
1606398315.391,-31.738,-17.090,-25.879,-18.555,0.000
1606398315.395,-25.879,-20.508,-40.527,-21.973,0.000
1606398315.399,-24.414,-25.879,-44.434,-32.715,0.000
1606398315.403,-28.809,-23.438,-42.480,-40.039,0.000
1606398315.407,-31.738,-28.320,-41.504,-38.574,0.000
1606398315.411,-27.832,-33.691,-34.180,-33.203,0.000
1606398315.415,-23.926,-34.180,-28.320,-22.461,0.000
1606398315.418,-19.531,-27.832,-27.344,-20.996,0.000
1606398315.422,-25.391,-21.484,-25.391,-26.855,0.000
1606398315.426,-41.504,-27.344,-27.344,-23.438,0.000
1606398315.430,-42.969,-37.598,-31.250,-10.254,0.000
1606398315.434,-37.109,-33.691,-34.668,-5.859,0.000
1606398315.438,-31.738,-23.438,-34.180,-8.301,0.000
1606398315.442,-36.133,-31.738,-30.273,-14.648,0.000
1606398315.446,-48.340,-38.574,-26.855,-28.809,0.000
1606398315.450,-45.898,-29.297,-18.066,-28.320,0.000
1606398315.454,-34.180,-26.855,-16.602,-17.578,0.000
1606398315.458,-27.344,-26.367,-27.832,-16.602,0.000
1606398315.461,-29.785,-29.785,-32.715,-25.391,0.000
1606398315.465,-36.621,-32.715,-37.109,-31.738,0.000
1606398315.469,-38.086,-32.715,-45.898,-29.297,0.000
1606398315.473,-34.180,-37.109,-41.992,-18.066,0.000
1606398315.477,-21.973,-40.039,-31.250,-14.160,0.000
1606398315.481,-23.926,-28.320,-30.762,-26.367,0.000
1606398315.485,-32.227,-25.391,-29.297,-35.156,0.000
1606398315.489,-31.250,-29.297,-28.320,-35.645,0.000
1606398315.493,-28.809,-30.762,-33.203,-31.738,0.000
1606398315.497,-26.855,-31.250,-29.785,-28.809,0.000
1606398315.501,-25.391,-25.391,-31.250,-28.320,0.000
1606398315.504,-26.367,-32.715,-31.738,-32.715,0.000
1606398315.508,-33.203,-38.574,-19.043,-28.809,0.000
1606398315.512,-32.715,-30.273,-17.090,-31.738,0.000
1606398315.516,-27.344,-22.949,-16.113,-33.691,0.000
1606398315.520,-28.320,-25.879,-16.113,-21.973,0.000
1606398315.524,-35.645,-27.832,-26.855,-27.832,0.000
1606398315.528,-38.574,-20.996,-31.250,-43.457,0.000
1606398315.532,-27.344,-22.949,-28.320,-33.691,0.000
1606398315.536,-23.926,-31.738,-30.273,-21.484,0.000
1606398315.540,-26.855,-28.809,-34.180,-20.020,0.000
1606398315.543,-28.809,-24.902,-40.039,-21.973,0.000
1606398315.547,-40.039,-36.133,-41.504,-25.879,0.000
1606398315.551,-38.086,-33.691,-28.809,-24.414,0.000
1606398315.555,-21.973,-21.484,-22.461,-16.602,0.000
1606398315.559,-22.461,-20.020,-29.297,-17.578,0.000
1606398315.563,-28.809,-32.227,-41.016,-20.020,0.000
1606398315.567,-31.250,-38.086,-35.156,-26.367,0.000
1606398315.571,-24.902,-27.344,-24.414,-25.391,0.000
1606398315.575,-15.625,-27.344,-24.902,-16.113,0.000
1606398315.579,-11.230,-31.250,-27.832,-16.602,0.000
1606398315.583,-11.230,-28.809,-31.738,-22.461,0.000
1606398315.586,-22.461,-28.320,-29.785,-31.738,0.000
1606398315.590,-30.273,-31.738,-30.762,-35.156,0.000
1606398315.594,-20.020,-23.926,-34.668,-23.926,0.000
1606398315.598,-14.160,-19.043,-27.344,-15.625,0.000
1606398315.602,-21.973,-24.902,-18.555,-24.902,0.000
1606398315.606,-29.785,-24.414,-20.020,-26.855,0.000
1606398315.610,-36.621,-28.320,-19.043,-16.602,0.000
1606398315.614,-35.645,-33.203,-23.926,-14.160,0.000
1606398315.618,-32.715,-25.879,-32.227,-13.672,0.000
1606398315.622,-37.598,-26.367,-35.645,-23.438,0.000
1606398315.626,-38.086,-34.180,-35.645,-28.320,0.000
1606398315.629,-36.133,-28.320,-28.809,-21.973,0.000
1606398315.633,-30.273,-28.320,-29.785,-21.973,0.000
1606398315.637,-23.926,-34.668,-27.344,-19.531,0.000
1606398315.641,-31.250,-30.762,-21.973,-24.414,0.000
1606398315.645,-41.992,-26.855,-29.297,-33.691,0.000
1606398315.649,-39.062,-28.320,-37.109,-33.691,0.000
1606398315.653,-28.320,-28.320,-40.039,-26.367,0.000
1606398315.657,-29.297,-27.832,-36.133,-19.531,0.000
1606398315.661,-35.156,-23.926,-32.227,-26.855,0.000
1606398315.665,-36.621,-20.996,-25.391,-31.738,0.000
1606398315.668,-37.109,-23.438,-18.555,-23.438,0.000
1606398315.672,-31.738,-22.949,-18.066,-12.207,0.000
1606398315.676,-25.391,-23.926,-25.391,-11.230,0.000
1606398315.680,-25.391,-31.250,-37.109,-24.902,0.000
1606398315.684,-37.109,-40.039,-49.316,-31.250,0.000
1606398315.688,-43.945,-40.527,-42.969,-30.762,0.000
1606398315.692,-37.109,-31.250,-32.227,-21.973,0.000
1606398315.696,-31.738,-27.344,-34.180,-14.648,0.000
1606398315.700,-27.344,-35.156,-28.809,-11.719,0.000
1606398315.704,-30.762,-36.621,-25.391,-9.766,0.000
1606398315.708,-39.551,-27.344,-26.367,-18.555,0.000
1606398315.711,-32.715,-26.855,-29.785,-18.066,0.000
1606398315.715,-23.438,-27.832,-35.156,-12.207,0.000
1606398315.719,-24.414,-21.973,-36.621,-15.137,0.000
1606398315.723,-31.738,-20.508,-32.227,-16.113,0.000
1606398315.727,-37.598,-29.785,-24.902,-13.672,0.000
1606398315.731,-32.715,-26.855,-19.531,-13.184,0.000
1606398315.735,-29.297,-16.113,-26.367,-11.719,0.000
1606398315.739,-32.715,-15.625,-32.227,-13.184,0.000
1606398315.743,-33.691,-28.809,-34.668,-24.414,0.000
1606398315.747,-37.598,-34.668,-43.457,-32.715,0.000
1606398315.751,-41.016,-30.273,-45.898,-26.367,0.000
1606398315.754,-33.203,-26.855,-35.156,-21.973,0.000
1606398315.758,-31.738,-37.598,-34.668,-19.531,0.000
1606398315.762,-39.062,-40.039,-39.551,-20.020,0.000
1606398315.766,-43.457,-25.391,-32.715,-26.855,0.000
1606398315.770,-40.039,-23.926,-29.785,-22.461,0.000
1606398315.774,-25.391,-27.832,-32.715,-14.648,0.000
1606398315.778,-14.160,-24.902,-33.203,-14.648,0.000
1606398315.782,-19.531,-18.555,-30.762,-20.996,0.000
1606398315.786,-32.227,-27.832,-35.156,-30.762,0.000
1606398315.790,-32.715,-35.156,-39.062,-31.250,0.000
1606398315.793,-30.273,-28.320,-38.574,-23.926,0.000
1606398315.797,-24.414,-21.484,-35.156,-15.137,0.000
1606398315.801,-22.949,-22.949,-35.645,-25.879,0.000
1606398315.805,-28.809,-34.180,-37.598,-31.738,0.000
1606398315.809,-30.762,-34.668,-36.133,-31.738,0.000
1606398315.813,-23.438,-26.855,-32.227,-31.250,0.000
1606398315.817,-21.484,-30.762,-27.344,-16.602,0.000
1606398315.821,-22.949,-28.809,-25.391,-18.555,0.000
1606398315.825,-26.367,-28.320,-24.902,-28.809,0.000
1606398315.829,-29.785,-24.414,-24.902,-21.973,0.000
1606398315.833,-24.414,-26.367,-28.320,-18.066,0.000
1606398315.836,-17.578,-34.668,-35.645,-20.508,0.000
1606398315.840,-17.090,-42.480,-41.992,-27.344,0.000
1606398315.844,-20.020,-34.180,-32.715,-30.762,0.000
1606398315.848,-25.879,-26.855,-29.297,-25.391,0.000
1606398315.852,-27.344,-36.621,-28.809,-18.555,0.000
1606398315.856,-23.438,-26.367,-19.043,-20.508,0.000
1606398315.860,-30.273,-28.320,-25.391,-27.344,0.000
1606398315.864,-44.434,-39.062,-39.551,-29.785,0.000
1606398315.868,-41.992,-38.086,-37.598,-31.738,0.000
1606398315.872,-25.391,-34.668,-32.227,-28.320,0.000
1606398315.876,-20.020,-24.902,-32.227,-18.066,0.000
1606398315.879,-28.809,-25.879,-30.273,-16.113,0.000
1606398315.883,-36.621,-28.320,-24.414,-23.926,0.000
1606398315.887,-36.133,-31.250,-27.344,-29.785,0.000
1606398315.891,-27.832,-38.574,-32.227,-27.832,0.000
1606398315.895,-23.438,-49.316,-24.414,-20.508,0.000
1606398315.899,-25.879,-49.316,-22.949,-19.531,0.000
1606398315.903,-29.785,-33.691,-22.949,-30.273,0.000
1606398315.907,-32.715,-23.438,-28.320,-33.203,0.000
1606398315.911,-27.832,-21.973,-43.945,-21.484,0.000
1606398315.915,-24.414,-20.996,-35.645,-13.184,0.000
1606398315.918,-24.902,-21.484,-19.043,-12.695,0.000
1606398315.922,-26.855,-27.344,-20.508,-10.742,0.000
1606398315.926,-31.250,-31.250,-23.438,-14.648,0.000
1606398315.930,-30.273,-27.344,-21.484,-12.695,0.000
1606398315.934,-24.414,-28.809,-18.066,-10.254,0.000
1606398315.938,-21.484,-29.785,-19.531,-16.113,0.000
1606398315.942,-28.320,-25.391,-31.738,-24.902,0.000
1606398315.946,-37.598,-14.648,-38.574,-29.297,0.000
1606398315.950,-35.156,-22.949,-36.621,-27.344,0.000
1606398315.954,-22.461,-39.551,-30.762,-26.367,0.000
1606398315.958,-14.648,-35.645,-20.020,-22.949,0.000
1606398315.961,-19.043,-29.785,-20.508,-31.738,0.000
1606398315.965,-33.203,-24.902,-27.832,-39.062,0.000
1606398315.969,-38.086,-21.973,-30.762,-30.273,0.000
1606398315.973,-18.555,-22.949,-31.738,-18.555,0.000
1606398315.977,-6.348,-26.855,-35.156,-10.742,0.000
1606398315.981,-17.090,-26.855,-36.621,-16.602,0.000
1606398315.985,-33.203,-38.086,-28.809,-24.902,0.000
1606398315.989,-39.551,-38.574,-27.832,-28.809,0.000
1606398315.993,-39.062,-29.785,-27.832,-30.762,0.000
1606398315.997,-32.715,-41.504,-25.879,-31.250,0.000
1606398316.001,-29.785,-41.992,-31.250,-28.809,0.000
1606398316.004,-41.992,-29.785,-44.922,-36.133,0.000
1606398316.008,-39.551,-21.484,-45.410,-41.992,0.000
1606398316.012,-29.297,-26.367,-39.062,-29.297,0.000
1606398316.016,-25.879,-33.203,-30.762,-29.785,0.000
1606398316.020,-32.715,-31.738,-18.555,-34.180,0.000
1606398316.024,-40.527,-26.855,-17.578,-31.738,0.000
1606398316.028,-33.691,-33.691,-22.949,-24.414,0.000
1606398316.032,-26.855,-38.086,-32.227,-15.137,0.000
1606398316.036,-23.438,-28.809,-31.250,-19.043,0.000
1606398316.040,-20.996,-30.762,-38.574,-19.043,0.000
1606398316.043,-31.738,-39.062,-46.387,-22.949,0.000
1606398316.047,-45.898,-43.457,-30.762,-37.109,0.000
1606398316.051,-38.574,-32.715,-21.484,-34.668,0.000
1606398316.055,-26.855,-19.043,-22.461,-27.832,0.000
1606398316.059,-26.855,-17.578,-28.809,-21.973,0.000
1606398316.063,-33.691,-31.250,-30.273,-20.996,0.000
1606398316.067,-40.039,-34.180,-27.344,-24.902,0.000
1606398316.071,-31.738,-22.949,-31.738,-24.902,0.000
1606398316.075,-20.996,-33.691,-34.180,-13.672,0.000
1606398316.079,-24.902,-29.785,-27.832,-17.578,0.000
1606398316.083,-37.598,-10.742,-25.391,-41.504,0.000
1606398316.086,-42.480,-17.578,-27.832,-40.039,0.000
1606398316.090,-39.551,-29.297,-34.668,-32.227,0.000
1606398316.094,-35.156,-30.273,-32.715,-29.785,0.000
1606398316.098,-27.344,-27.344,-34.180,-30.273,0.000
1606398316.102,-26.367,-32.227,-36.621,-30.762,0.000
1606398316.106,-43.945,-35.645,-31.738,-35.645,0.000
1606398316.110,-49.316,-30.273,-36.133,-34.180,0.000
1606398316.114,-39.062,-29.785,-35.645,-37.109,0.000
1606398316.118,-29.297,-38.574,-28.320,-34.668,0.000
1606398316.122,-31.738,-41.992,-31.250,-35.156,0.000
1606398316.126,-38.574,-42.969,-29.785,-35.645,0.000
1606398316.129,-33.203,-41.504,-25.391,-23.926,0.000
1606398316.133,-24.902,-37.598,-24.902,-15.625,0.000
1606398316.137,-20.020,-28.320,-34.180,-11.230,0.000
1606398316.141,-22.949,-18.555,-39.062,-24.414,0.000
1606398316.145,-32.715,-23.438,-31.738,-33.203,0.000
1606398316.149,-43.457,-27.832,-29.297,-31.250,0.000
1606398316.153,-40.527,-31.250,-20.996,-25.391,0.000
1606398316.157,-34.180,-36.133,-20.996,-14.160,0.000
1606398316.161,-36.133,-39.062,-20.508,-17.578,0.000
1606398316.165,-45.898,-39.551,-27.344,-24.902,0.000
1606398316.168,-52.246,-35.645,-39.062,-28.320,0.000
1606398316.172,-41.504,-23.438,-32.715,-31.738,0.000
1606398316.176,-31.738,-18.555,-30.762,-20.020,0.000
1606398316.180,-35.645,-29.297,-39.551,-18.555,0.000
1606398316.184,-48.340,-30.762,-33.203,-36.133,0.000
1606398316.188,-51.270,-24.414,-20.508,-42.480,0.000
1606398316.192,-42.969,-30.762,-17.578,-31.738,0.000
1606398316.196,-38.086,-34.180,-20.508,-21.484,0.000
1606398316.200,-37.109,-26.855,-29.297,-20.020,0.000
1606398316.204,-37.109,-24.414,-23.926,-21.973,0.000
1606398316.208,-40.527,-31.738,-14.648,-24.414,0.000
1606398316.211,-41.504,-37.598,-29.785,-27.344,0.000
1606398316.215,-29.785,-38.086,-36.133,-18.555,0.000
1606398316.219,-25.391,-33.691,-26.367,-16.602,0.000
1606398316.223,-36.133,-44.922,-21.484,-22.461,0.000
1606398316.227,-39.062,-44.434,-20.020,-25.391,0.000
1606398316.231,-31.250,-29.785,-26.367,-30.273,0.000
1606398316.235,-24.902,-35.156,-36.621,-23.926,0.000
1606398316.239,-24.414,-37.598,-35.156,-16.113,0.000
1606398316.243,-32.227,-31.250,-27.344,-28.809,0.000
1606398316.247,-46.875,-26.855,-29.785,-28.809,0.000
1606398316.251,-44.434,-30.762,-37.109,-16.602,0.000
1606398316.254,-32.715,-32.715,-40.039,-9.277,0.000
1606398316.258,-38.086,-41.016,-40.527,-10.742,0.000
1606398316.262,-49.316,-45.898,-34.668,-21.484,0.000
1606398316.266,-53.711,-36.621,-30.762,-27.344,0.000
1606398316.270,-53.711,-35.156,-26.367,-23.438,0.000
1606398316.274,-36.621,-27.832,-20.508,-13.672,0.000
1606398316.278,-26.367,-12.207,-25.391,-13.672,0.000
1606398316.282,-34.180,-17.578,-20.996,-21.484,0.000
1606398316.286,-33.691,-29.297,-17.090,-24.902,0.000
1606398316.290,-26.367,-31.738,-29.297,-19.531,0.000
1606398316.293,-18.555,-31.250,-41.992,-9.766,0.000
1606398316.297,-19.531,-33.691,-43.945,-8.789,0.000
1606398316.301,-23.926,-37.109,-39.062,-27.832,0.000
1606398316.305,-35.645,-33.691,-36.133,-41.504,0.000
1606398316.309,-46.387,-36.621,-32.715,-39.062,0.000
1606398316.313,-37.109,-38.086,-27.832,-27.832,0.000
1606398316.317,-22.461,-27.344,-28.320,-16.602,0.000
1606398316.321,-23.926,-18.555,-28.809,-22.949,0.000
1606398316.325,-34.668,-23.926,-26.855,-36.621,0.000
1606398316.329,-39.551,-26.855,-29.785,-36.621,0.000
1606398316.333,-34.668,-26.855,-43.945,-25.391,0.000
1606398316.336,-25.879,-23.926,-56.641,-20.508,0.000
1606398316.340,-20.020,-23.926,-41.016,-29.297,0.000
1606398316.344,-36.133,-34.180,-18.555,-42.969,0.000
1606398316.348,-44.434,-41.016,-10.254,-44.434,0.000
1606398316.352,-33.203,-40.039,-17.578,-33.203,0.000
1606398316.356,-26.367,-33.691,-27.344,-23.438,0.000
1606398316.360,-27.344,-33.203,-29.297,-20.020,0.000
1606398316.364,-33.203,-26.367,-30.273,-22.949,0.000
1606398316.368,-39.551,-28.320,-32.227,-27.344,0.000
1606398316.372,-34.668,-41.504,-39.551,-18.555,0.000
1606398316.376,-23.926,-38.086,-41.504,-8.789,0.000
1606398316.379,-22.461,-28.320,-32.715,-12.695,0.000
1606398316.383,-26.855,-23.438,-28.809,-21.973,0.000
1606398316.387,-22.949,-29.297,-23.926,-21.973,0.000
1606398316.391,-18.555,-28.809,-20.996,-13.672,0.000
1606398316.395,-15.625,-17.578,-20.508,-11.230,0.000
1606398316.399,-18.555,-16.602,-25.391,-11.719,0.000
1606398316.403,-27.832,-27.832,-29.785,-23.926,0.000
1606398316.407,-38.574,-38.086,-32.715,-37.109,0.000
1606398316.411,-39.062,-30.762,-38.574,-36.621,0.000
1606398316.415,-28.809,-28.809,-36.621,-32.227,0.000
1606398316.418,-27.832,-31.250,-35.645,-31.250,0.000
1606398316.422,-33.691,-29.297,-36.133,-34.180,0.000
1606398316.426,-38.574,-27.344,-32.227,-36.621,0.000
1606398316.430,-40.039,-30.762,-38.574,-35.156,0.000
1606398316.434,-30.273,-30.273,-40.527,-21.484,0.000
1606398316.438,-25.879,-19.043,-30.273,-18.066,0.000
1606398316.442,-36.133,-26.855,-32.227,-26.855,0.000
1606398316.446,-37.109,-34.180,-38.086,-32.227,0.000
1606398316.450,-34.668,-30.762,-28.809,-24.414,0.000
1606398316.454,-38.574,-32.227,-23.926,-20.508,0.000
1606398316.458,-36.133,-25.391,-26.367,-22.461,0.000
1606398316.461,-31.738,-23.438,-27.344,-24.414,0.000
1606398316.465,-35.156,-33.203,-31.738,-30.273,0.000
1606398316.469,-33.203,-32.227,-36.621,-26.855,0.000
1606398316.473,-24.902,-25.879,-28.809,-19.531,0.000
1606398316.477,-25.879,-31.250,-24.414,-13.184,0.000
1606398316.481,-34.668,-36.133,-26.855,-19.531,0.000
1606398316.485,-39.551,-38.086,-23.926,-29.297,0.000
1606398316.489,-40.039,-35.645,-25.391,-32.715,0.000
1606398316.493,-33.691,-36.133,-29.297,-30.762,0.000
1606398316.497,-27.832,-31.738,-33.691,-24.414,0.000
1606398316.501,-32.227,-24.414,-26.367,-22.949,0.000
1606398316.504,-40.527,-25.879,-19.043,-28.320,0.000
1606398316.508,-41.992,-35.645,-27.832,-27.344,0.000
1606398316.512,-38.574,-40.527,-38.086,-25.879,0.000
1606398316.516,-33.691,-30.762,-35.645,-25.879,0.000
1606398316.520,-37.598,-33.203,-34.668,-31.738,0.000
1606398316.524,-46.875,-37.598,-30.762,-39.062,0.000
1606398316.528,-45.898,-36.621,-23.926,-34.180,0.000
1606398316.532,-34.668,-34.668,-31.250,-29.785,0.000
1606398316.536,-24.902,-29.297,-35.645,-20.996,0.000
1606398316.540,-28.320,-33.203,-32.715,-14.648,0.000
1606398316.543,-32.715,-33.203,-33.203,-22.949,0.000
1606398316.547,-36.133,-29.785,-36.133,-28.809,0.000
1606398316.551,-35.645,-31.738,-34.180,-16.113,0.000
1606398316.555,-25.391,-43.457,-30.273,-7.324,0.000
1606398316.559,-24.414,-37.109,-25.391,-17.578,0.000
1606398316.563,-34.180,-23.438,-25.879,-23.926,0.000
1606398316.567,-37.109,-31.250,-27.832,-22.461,0.000
1606398316.571,-34.668,-33.691,-29.297,-19.043,0.000
1606398316.575,-30.273,-27.832,-41.016,-15.625,0.000
1606398316.579,-26.855,-21.484,-40.039,-16.113,0.000
1606398316.583,-36.621,-21.484,-32.227,-25.391,0.000
1606398316.586,-41.504,-28.320,-31.250,-30.762,0.000
1606398316.590,-33.203,-31.250,-28.809,-28.320,0.000
1606398316.594,-23.438,-31.738,-26.367,-20.020,0.000
1606398316.598,-17.578,-33.691,-24.902,-12.207,0.000
1606398316.602,-24.414,-30.273,-28.809,-17.578,0.000
1606398316.606,-26.367,-21.484,-34.668,-24.414,0.000
1606398316.610,-21.484,-24.902,-37.109,-19.043,0.000
1606398316.614,-20.020,-27.832,-44.922,-14.160,0.000
1606398316.618,-20.996,-26.367,-41.504,-14.648,0.000
1606398316.622,-23.926,-26.367,-21.484,-21.484,0.000
1606398316.626,-32.715,-32.715,-22.949,-26.367,0.000
1606398316.629,-34.668,-41.992,-27.344,-24.902,0.000
1606398316.633,-32.227,-34.180,-24.414,-20.020,0.000
1606398316.637,-26.367,-27.832,-25.879,-16.602,0.000
1606398316.641,-24.414,-29.785,-30.762,-23.438,0.000
1606398316.645,-32.227,-34.668,-35.156,-25.391,0.000
1606398316.649,-38.086,-31.250,-29.785,-24.902,0.000
1606398316.653,-34.180,-20.020,-31.250,-20.508,0.000
1606398316.657,-25.391,-22.949,-40.527,-14.160,0.000
1606398316.661,-24.414,-27.344,-31.250,-18.555,0.000
1606398316.665,-26.855,-22.949,-21.484,-24.902,0.000
1606398316.668,-27.832,-24.414,-25.879,-26.367,0.000
1606398316.672,-21.973,-27.344,-31.250,-20.508,0.000
1606398316.676,-20.020,-26.367,-40.527,-17.578,0.000
1606398316.680,-23.926,-22.461,-34.180,-17.090,0.000
1606398316.684,-31.250,-24.902,-22.461,-20.996,0.000
1606398316.688,-36.133,-33.691,-25.879,-19.043,0.000
1606398316.692,-28.320,-27.344,-24.902,-17.578,0.000
1606398316.696,-25.391,-18.555,-22.461,-22.949,0.000
1606398316.700,-33.691,-28.809,-35.645,-20.996,0.000
1606398316.704,-39.551,-33.203,-39.062,-22.461,0.000
1606398316.708,-44.434,-25.391,-27.832,-23.438,0.000
1606398316.711,-39.062,-27.344,-29.785,-24.902,0.000
1606398316.715,-25.879,-31.738,-33.203,-23.926,0.000
1606398316.719,-24.414,-36.621,-28.320,-25.391,0.000
1606398316.723,-35.156,-40.527,-30.762,-34.668,0.000
1606398316.727,-38.086,-34.668,-30.762,-38.086,0.000
1606398316.731,-31.738,-27.832,-28.809,-37.109,0.000
1606398316.735,-27.832,-32.227,-37.109,-31.738,0.000
1606398316.739,-21.973,-31.738,-38.574,-27.832,0.000
1606398316.743,-24.902,-22.461,-34.180,-32.227,0.000
1606398316.747,-30.762,-24.902,-25.391,-29.785,0.000
1606398316.751,-32.227,-32.227,-18.066,-25.879,0.000
1606398316.754,-24.414,-28.320,-19.043,-24.414,0.000
1606398316.758,-19.531,-23.438,-22.949,-20.508,0.000
1606398316.762,-28.809,-27.344,-22.949,-20.020,0.000
1606398316.766,-34.668,-23.926,-25.879,-22.461,0.000
1606398316.770,-34.668,-14.648,-31.250,-17.578,0.000
1606398316.774,-25.879,-17.578,-35.645,-8.301,0.000
1606398316.778,-18.066,-26.367,-34.180,-8.789,0.000
1606398316.782,-22.949,-26.367,-30.273,-21.484,0.000
1606398316.786,-29.297,-15.625,-29.297,-31.250,0.000
1606398316.790,-28.809,-18.066,-28.320,-23.438,0.000
1606398316.793,-20.020,-40.039,-34.180,-15.137,0.000
1606398316.797,-16.602,-36.133,-36.621,-17.578,0.000
1606398316.801,-20.508,-20.996,-38.086,-21.484,0.000
1606398316.805,-27.344,-29.297,-37.109,-19.043,0.000
1606398316.809,-26.367,-25.391,-41.016,-16.602,0.000
1606398316.813,-15.137,-21.973,-43.457,-18.555,0.000
1606398316.817,-11.230,-23.438,-38.086,-20.020,0.000
1606398316.821,-17.578,-27.344,-29.785,-15.137,0.000
1606398316.825,-25.879,-43.457,-21.484,-15.137,0.000
1606398316.829,-30.273,-39.062,-25.879,-22.461,0.000
1606398316.833,-29.785,-22.461,-33.691,-26.855,0.000
1606398316.836,-20.020,-20.020,-29.785,-19.043,0.000
1606398316.840,-14.648,-28.320,-31.250,-15.625,0.000
1606398316.844,-22.949,-29.785,-32.227,-28.809,0.000
1606398316.848,-27.832,-25.879,-32.715,-30.273,0.000
1606398316.852,-26.367,-24.414,-33.691,-18.066,0.000
1606398316.856,-25.391,-24.414,-36.621,-10.254,0.000
1606398316.860,-25.391,-24.902,-38.574,-13.184,0.000
1606398316.864,-34.668,-33.203,-30.273,-24.902,0.000
1606398316.868,-42.969,-43.457,-26.367,-31.738,0.000
1606398316.872,-35.156,-41.504,-25.391,-22.461,0.000
1606398316.876,-26.855,-33.203,-30.762,-17.090,0.000
1606398316.879,-24.902,-25.879,-36.133,-23.926,0.000
1606398316.883,-31.250,-37.109,-30.273,-28.320,0.000
1606398316.887,-40.527,-39.551,-23.926,-26.855,0.000
1606398316.891,-37.109,-22.461,-33.203,-19.043,0.000
1606398316.895,-28.320,-29.785,-31.250,-16.113,0.000
1606398316.899,-29.297,-33.203,-22.461,-20.996,0.000
1606398316.903,-38.086,-25.879,-21.973,-20.996,0.000
1606398316.907,-41.504,-27.832,-28.320,-32.715,0.000
1606398316.911,-41.504,-35.156,-38.574,-36.133,0.000
1606398316.915,-35.156,-38.086,-29.297,-19.531,0.000
1606398316.918,-25.879,-31.250,-15.625,-13.672,0.000
1606398316.922,-33.203,-19.531,-27.832,-29.297,0.000
1606398316.926,-40.527,-24.902,-41.992,-37.109,0.000
1606398316.930,-39.062,-34.668,-35.645,-23.926,0.000
1606398316.934,-32.227,-20.508,-32.715,-15.625,0.000
1606398316.938,-25.391,-11.719,-34.668,-18.066,0.000
1606398316.942,-29.297,-22.461,-27.832,-26.855,0.000
1606398316.946,-41.504,-22.949,-19.043,-37.109,0.000
1606398316.950,-44.434,-25.879,-21.484,-41.504,0.000
1606398316.954,-33.691,-27.832,-27.832,-36.621,0.000
1606398316.958,-27.832,-27.344,-27.344,-33.203,0.000
1606398316.961,-28.320,-31.738,-35.645,-33.691,0.000
1606398316.965,-33.691,-32.227,-33.691,-31.738,0.000
1606398316.969,-35.156,-26.367,-23.926,-34.668,0.000
1606398316.973,-29.297,-28.809,-21.973,-30.273,0.000
1606398316.977,-26.855,-36.133,-18.555,-24.414,0.000
1606398316.981,-30.273,-24.414,-21.973,-31.738,0.000
1606398316.985,-35.156,-20.020,-26.855,-37.109,0.000
1606398316.989,-35.645,-29.785,-30.273,-33.203,0.000
1606398316.993,-32.715,-33.203,-28.809,-28.809,0.000
1606398316.997,-28.320,-21.973,-43.945,-24.414,0.000
1606398317.001,-30.273,-19.043,-46.875,-22.949,0.000
1606398317.004,-37.109,-20.508,-26.855,-25.879,0.000
1606398317.008,-39.551,-22.461,-22.461,-32.715,0.000
1606398317.012,-38.086,-35.645,-26.855,-32.715,0.000
1606398317.016,-37.598,-38.086,-29.297,-27.344,0.000
1606398317.020,-30.762,-37.598,-28.809,-21.484,0.000
1606398317.024,-29.297,-42.480,-36.621,-24.414,0.000
1606398317.028,-37.109,-35.645,-30.762,-35.156,0.000
1606398317.032,-35.645,-24.414,-18.555,-30.762,0.000
1606398317.036,-30.273,-23.438,-15.137,-19.043,0.000
1606398317.040,-29.785,-24.902,-13.672,-21.973,0.000
1606398317.043,-33.203,-21.484,-19.531,-29.785,0.000
1606398317.047,-33.691,-23.926,-23.926,-29.785,0.000
1606398317.051,-34.668,-32.227,-31.250,-35.156,0.000
1606398317.055,-30.762,-31.738,-34.180,-31.738,0.000
1606398317.059,-35.156,-32.227,-35.645,-26.855,0.000
1606398317.063,-39.062,-38.574,-38.086,-24.902,0.000
1606398317.067,-35.156,-39.551,-25.391,-24.414,0.000
1606398317.071,-36.621,-30.762,-34.180,-31.250,0.000
1606398317.075,-22.461,-27.344,-46.875,-24.902,0.000
1606398317.079,-21.973,-35.645,-38.574,-30.273,0.000
1606398317.083,-35.645,-40.039,-38.086,-45.898,0.000
1606398317.086,-40.039,-35.156,-35.156,-41.504,0.000
1606398317.090,-44.922,-34.180,-34.668,-29.785,0.000
1606398317.094,-39.062,-28.320,-35.645,-18.066,0.000
1606398317.098,-30.273,-25.391,-32.227,-11.719,0.000
1606398317.102,-37.598,-28.809,-25.879,-12.695,0.000
1606398317.106,-45.410,-27.832,-28.809,-18.066,0.000
1606398317.110,-37.598,-32.715,-35.645,-15.137,0.000
1606398317.114,-28.809,-30.762,-27.832,-11.230,0.000
1606398317.118,-25.879,-24.414,-23.926,-17.578,0.000
1606398317.122,-28.320,-24.902,-19.043,-17.578,0.000
1606398317.126,-36.621,-27.344,-16.602,-21.973,0.000
1606398317.129,-34.668,-25.391,-24.902,-27.344,0.000
1606398317.133,-19.531,-22.949,-33.691,-22.949,0.000
1606398317.137,-15.137,-27.344,-33.691,-23.438,0.000
1606398317.141,-27.344,-26.367,-29.785,-36.133,0.000
1606398317.145,-32.227,-23.438,-32.715,-37.109,0.000
1606398317.149,-25.391,-26.855,-36.621,-26.367,0.000
1606398317.153,-28.320,-39.062,-28.320,-19.531,0.000
1606398317.157,-34.668,-36.133,-19.043,-22.949,0.000
1606398317.161,-33.691,-24.902,-23.438,-29.785,0.000
1606398317.165,-34.668,-29.297,-30.273,-37.109,0.000
1606398317.168,-30.762,-29.297,-31.250,-39.062,0.000
1606398317.172,-25.879,-30.273,-31.250,-28.320,0.000
1606398317.176,-21.973,-30.273,-27.832,-16.113,0.000
1606398317.180,-25.879,-31.738,-26.367,-8.789,0.000
1606398317.184,-32.715,-28.809,-32.227,-15.625,0.000
1606398317.188,-33.203,-23.438,-29.785,-23.438,0.000
1606398317.192,-33.203,-27.344,-23.926,-28.809,0.000
1606398317.196,-31.738,-31.250,-34.180,-33.691,0.000
1606398317.200,-31.250,-34.180,-34.180,-30.762,0.000
1606398317.204,-41.504,-33.691,-29.297,-40.039,0.000
1606398317.208,-44.922,-26.367,-33.691,-53.223,0.000
1606398317.211,-35.645,-28.809,-33.203,-41.504,0.000
1606398317.215,-22.949,-36.133,-30.762,-25.391,0.000
1606398317.219,-18.066,-28.809,-32.715,-27.832,0.000
1606398317.223,-25.391,-20.020,-38.086,-35.645,0.000
1606398317.227,-32.715,-25.391,-43.457,-35.156,0.000
1606398317.231,-28.809,-27.832,-33.203,-22.949,0.000
1606398317.235,-17.578,-26.855,-23.438,-17.090,0.000
1606398317.239,-18.066,-24.414,-26.367,-15.137,0.000
1606398317.243,-33.203,-24.414,-21.973,-15.137,0.000
1606398317.247,-44.922,-27.832,-20.508,-25.879,0.000
1606398317.251,-39.062,-27.344,-31.738,-27.832,0.000
1606398317.254,-22.949,-24.902,-34.180,-26.367,0.000
1606398317.258,-14.648,-23.926,-36.133,-21.973,0.000
1606398317.262,-26.855,-27.344,-36.133,-31.250,0.000
1606398317.266,-41.992,-25.391,-28.320,-48.828,0.000
1606398317.270,-37.109,-27.344,-24.414,-43.457,0.000
1606398317.274,-27.344,-32.715,-26.367,-27.832,0.000
1606398317.278,-28.320,-28.809,-36.133,-26.367,0.000
1606398317.282,-29.785,-26.367,-40.039,-32.715,0.000
1606398317.286,-29.785,-31.250,-32.715,-35.156,0.000
1606398317.290,-31.738,-35.156,-28.809,-28.809,0.000
1606398317.293,-24.414,-38.086,-29.297,-18.555,0.000
1606398317.297,-13.184,-32.715,-29.785,-11.719,0.000
1606398317.301,-11.230,-29.297,-37.109,-12.207,0.000
1606398317.305,-18.555,-35.156,-37.109,-12.207,0.000
1606398317.309,-22.461,-31.738,-25.391,-12.207,0.000
1606398317.313,-18.555,-19.531,-20.020,-10.742,0.000
1606398317.317,-8.301,-22.461,-26.855,-5.371,0.000
1606398317.321,-8.301,-27.832,-34.180,-3.906,0.000
1606398317.325,-23.438,-23.438,-36.621,-13.184,0.000
1606398317.329,-25.391,-22.949,-32.227,-20.020,0.000
1606398317.333,-17.090,-29.297,-25.879,-10.742,0.000
1606398317.336,-7.324,-30.273,-25.391,5.859,0.000
1606398317.340,-8.301,-30.762,-26.855,1.465,0.000
1606398317.344,-25.391,-28.809,-27.832,-17.578,0.000
1606398317.348,-33.203,-25.879,-24.902,-15.625,0.000
1606398317.352,-29.785,-28.809,-21.973,-11.719,0.000
1606398317.356,-24.414,-31.250,-24.902,-17.090,0.000
1606398317.360,-20.996,-25.391,-30.762,-14.160,0.000
1606398317.364,-24.902,-19.531,-35.645,-17.578,0.000
1606398317.368,-33.691,-24.902,-32.227,-30.762,0.000
1606398317.372,-28.809,-21.484,-25.391,-25.391,0.000
1606398317.376,-21.484,-21.973,-28.809,-16.602,0.000
1606398317.379,-22.949,-31.250,-29.297,-22.949,0.000
1606398317.383,-33.203,-31.738,-28.320,-31.738,0.000
1606398317.387,-43.945,-32.715,-40.527,-33.691,0.000
1606398317.391,-43.945,-34.668,-42.969,-37.598,0.000
1606398317.395,-31.738,-43.945,-29.297,-34.668,0.000
1606398317.399,-24.902,-43.945,-29.297,-23.438,0.000
1606398317.403,-33.691,-34.668,-42.480,-33.203,0.000
1606398317.407,-34.668,-35.156,-47.852,-39.062,0.000
1606398317.411,-29.297,-28.320,-35.156,-27.832,0.000
1606398317.415,-26.367,-20.508,-27.344,-20.508,0.000
1606398317.418,-32.227,-24.414,-29.785,-18.555,0.000
1606398317.422,-41.016,-36.621,-33.203,-29.297,0.000
1606398317.426,-43.457,-38.574,-38.086,-28.809,0.000
1606398317.430,-39.062,-27.832,-39.551,-20.020,0.000
1606398317.434,-33.203,-30.762,-43.457,-26.855,0.000
1606398317.438,-30.762,-40.527,-47.852,-28.809,0.000
1606398317.442,-36.133,-41.016,-45.898,-30.762,0.000
1606398317.446,-40.039,-33.691,-40.527,-36.621,0.000
1606398317.450,-37.109,-32.227,-35.156,-33.691,0.000
1606398317.454,-27.832,-33.203,-31.250,-23.926,0.000
1606398317.458,-20.020,-24.902,-31.250,-20.020,0.000
1606398317.461,-27.344,-21.973,-33.203,-20.996,0.000
1606398317.465,-36.621,-30.273,-33.203,-23.438,0.000
1606398317.469,-36.621,-38.086,-25.879,-28.809,0.000
1606398317.473,-31.738,-37.598,-26.855,-29.785,0.000
1606398317.477,-25.391,-32.227,-34.180,-26.367,0.000
1606398317.481,-33.203,-33.691,-37.598,-21.973,0.000
1606398317.485,-47.363,-37.109,-35.645,-23.926,0.000
1606398317.489,-40.039,-29.785,-26.855,-27.344,0.000
1606398317.493,-26.367,-29.297,-19.531,-17.578,0.000
1606398317.497,-22.461,-36.133,-14.648,-13.184,0.000
1606398317.501,-26.367,-41.504,-18.066,-14.160,0.000
1606398317.504,-34.668,-35.645,-24.902,-24.902,0.000
1606398317.508,-41.016,-27.832,-31.250,-32.227,0.000
1606398317.512,-36.621,-34.668,-32.227,-20.020,0.000
1606398317.516,-38.086,-27.832,-37.598,-16.113,0.000
1606398317.520,-40.527,-20.020,-38.086,-22.461,0.000
1606398317.524,-40.527,-29.785,-29.785,-31.250,0.000
1606398317.528,-41.992,-37.598,-24.902,-33.691,0.000
1606398317.532,-37.598,-40.039,-25.391,-26.367,0.000
1606398317.536,-32.227,-22.949,-30.762,-23.438,0.000
1606398317.540,-30.762,-14.160,-39.062,-26.855,0.000
1606398317.543,-35.156,-31.738,-36.621,-30.762,0.000
1606398317.547,-42.480,-37.598,-26.367,-34.180,0.000
1606398317.551,-41.504,-29.297,-24.414,-34.668,0.000
1606398317.555,-27.832,-26.367,-24.414,-27.344,0.000
1606398317.559,-21.973,-26.855,-27.832,-16.602,0.000
1606398317.563,-31.738,-27.832,-36.621,-21.484,0.000
1606398317.567,-34.180,-26.855,-36.621,-29.785,0.000
1606398317.571,-31.738,-25.391,-31.250,-28.809,0.000
1606398317.575,-26.855,-31.738,-37.598,-14.160,0.000
1606398317.579,-21.484,-33.203,-36.133,-8.301,0.000
1606398317.583,-28.809,-27.832,-25.391,-30.273,0.000
1606398317.586,-36.621,-28.320,-16.113,-36.621,0.000
1606398317.590,-36.621,-26.855,-16.113,-29.785,0.000
1606398317.594,-25.879,-14.648,-18.555,-15.625,0.000
1606398317.598,-19.531,-12.207,-26.367,-13.184,0.000
1606398317.602,-28.320,-22.949,-35.156,-20.508,0.000
1606398317.606,-31.738,-25.391,-40.527,-25.879,0.000
1606398317.610,-27.344,-24.902,-36.133,-17.578,0.000
1606398317.614,-24.902,-26.367,-22.461,-16.113,0.000
1606398317.618,-19.043,-28.320,-16.602,-20.020,0.000
1606398317.622,-23.438,-36.133,-22.949,-15.137,0.000
1606398317.626,-36.133,-38.574,-32.715,-17.090,0.000
1606398317.629,-37.109,-29.785,-31.250,-20.508,0.000
1606398317.633,-27.832,-36.621,-29.297,-17.578,0.000
1606398317.637,-25.391,-39.551,-28.320,-16.113,0.000
1606398317.641,-30.273,-22.949,-34.180,-32.715,0.000
1606398317.645,-30.762,-24.414,-41.016,-39.551,0.000
1606398317.649,-36.621,-38.574,-36.621,-31.738,0.000
1606398317.653,-36.621,-35.645,-29.297,-24.414,0.000
1606398317.657,-23.926,-30.273,-29.785,-17.578,0.000
1606398317.661,-26.367,-34.668,-31.738,-23.926,0.000
1606398317.665,-34.180,-32.715,-24.902,-29.785,0.000
1606398317.668,-34.180,-27.832,-25.391,-26.367,0.000
1606398317.672,-38.086,-25.391,-36.621,-29.785,0.000
1606398317.676,-32.715,-24.414,-40.039,-31.738,0.000
1606398317.680,-24.414,-27.344,-35.156,-21.973,0.000
1606398317.684,-32.715,-23.926,-29.785,-21.973,0.000
1606398317.688,-40.527,-20.020,-29.297,-30.762,0.000
1606398317.692,-37.109,-23.438,-27.344,-22.949,0.000
1606398317.696,-25.391,-26.855,-26.855,-17.090,0.000
1606398317.700,-25.391,-25.879,-29.297,-25.391,0.000
1606398317.704,-37.598,-25.391,-30.273,-37.109,0.000
1606398317.708,-41.504,-30.762,-29.785,-33.691,0.000
1606398317.711,-34.180,-26.367,-30.762,-22.949,0.000
1606398317.715,-25.879,-22.949,-27.344,-18.555,0.000
1606398317.719,-31.738,-29.297,-27.344,-20.508,0.000
1606398317.723,-41.992,-40.527,-34.180,-20.508,0.000
1606398317.727,-41.504,-42.480,-23.438,-20.020,0.000
1606398317.731,-35.645,-27.344,-19.531,-25.391,0.000
1606398317.735,-24.414,-20.020,-30.273,-24.414,0.000
1606398317.739,-20.020,-19.043,-28.809,-22.461,0.000
1606398317.743,-32.715,-20.020,-21.484,-25.879,0.000
1606398317.747,-42.480,-27.832,-22.461,-28.809,0.000
1606398317.751,-40.527,-30.762,-25.391,-34.180,0.000
1606398317.754,-27.344,-28.320,-29.785,-23.926,0.000
1606398317.758,-22.949,-27.832,-31.738,-12.207,0.000
1606398317.762,-32.227,-33.203,-27.832,-15.137,0.000
1606398317.766,-34.668,-29.297,-32.715,-23.438,0.000
1606398317.770,-34.180,-29.297,-33.203,-22.949,0.000
1606398317.774,-36.133,-39.062,-31.250,-28.809,0.000
1606398317.778,-32.227,-32.715,-31.250,-31.738,0.000
1606398317.782,-35.156,-29.785,-31.250,-26.855,0.000
1606398317.786,-41.016,-28.809,-28.809,-29.785,0.000
1606398317.790,-39.551,-26.367,-31.250,-27.832,0.000
1606398317.793,-33.203,-25.391,-33.203,-23.926,0.000
1606398317.797,-28.320,-30.273,-41.016,-22.949,0.000
1606398317.801,-32.227,-41.504,-45.898,-28.809,0.000
1606398317.805,-41.016,-39.062,-33.203,-39.062,0.000
1606398317.809,-40.527,-27.832,-30.273,-40.527,0.000
1606398317.813,-31.250,-22.949,-33.203,-32.227,0.000
1606398317.817,-25.879,-26.367,-34.180,-27.832,0.000
1606398317.821,-32.227,-25.879,-30.273,-38.086,0.000
1606398317.825,-41.504,-28.320,-25.391,-47.852,0.000
1606398317.829,-43.945,-29.785,-27.832,-39.551,0.000
1606398317.833,-40.039,-30.762,-32.227,-20.996,0.000
1606398317.836,-27.832,-29.297,-34.180,-15.625,0.000
1606398317.840,-25.879,-20.508,-24.414,-20.996,0.000
1606398317.844,-35.156,-23.926,-16.602,-24.414,0.000
1606398317.848,-41.016,-31.738,-24.414,-30.273,0.000
1606398317.852,-31.738,-30.762,-37.598,-28.320,0.000
1606398317.856,-25.391,-33.691,-36.133,-23.926,0.000
1606398317.860,-29.297,-35.156,-30.273,-29.297,0.000
1606398317.864,-32.227,-33.691,-34.668,-32.715,0.000
1606398317.868,-40.039,-30.273,-36.621,-36.133,0.000
1606398317.872,-36.133,-20.996,-26.367,-34.180,0.000
1606398317.876,-23.926,-22.461,-20.020,-19.531,0.000
1606398317.879,-22.949,-16.602,-20.020,-21.484,0.000
1606398317.883,-26.367,-16.602,-24.902,-30.762,0.000
1606398317.887,-31.738,-35.645,-33.691,-29.785,0.000
1606398317.891,-33.203,-37.109,-35.156,-28.320,0.000
1606398317.895,-27.832,-33.203,-33.203,-26.855,0.000
1606398317.899,-23.926,-37.598,-37.109,-21.484,0.000
1606398317.903,-29.785,-38.574,-40.527,-20.996,0.000
1606398317.907,-41.016,-35.156,-35.645,-26.855,0.000
1606398317.911,-40.527,-26.367,-29.785,-20.996,0.000
1606398317.915,-37.109,-23.926,-28.320,-13.672,0.000
1606398317.918,-36.621,-29.785,-31.250,-7.812,0.000
1606398317.922,-35.156,-32.227,-41.504,-14.160,0.000
1606398317.926,-42.480,-35.645,-42.480,-28.320,0.000
1606398317.930,-41.016,-39.551,-38.574,-32.715,0.000
1606398317.934,-26.367,-40.527,-30.762,-29.785,0.000
1606398317.938,-26.855,-38.574,-34.180,-25.391,0.000
1606398317.942,-30.273,-34.180,-42.969,-29.297,0.000
1606398317.946,-28.809,-29.297,-33.203,-33.691,0.000
1606398317.950,-27.344,-27.344,-27.344,-21.484,0.000
1606398317.954,-21.484,-26.367,-30.273,-10.254,0.000
1606398317.958,-15.137,-20.020,-28.809,-11.230,0.000
1606398317.961,-15.137,-28.809,-31.250,-19.531,0.000
1606398317.965,-25.391,-37.109,-33.691,-24.902,0.000
1606398317.969,-31.738,-29.297,-29.297,-15.137,0.000
1606398317.973,-25.879,-17.578,-32.715,-12.207,0.000
1606398317.977,-17.090,-14.160,-39.551,-14.160,0.000
1606398317.981,-15.137,-22.949,-38.086,-14.648,0.000
1606398317.985,-26.855,-27.344,-27.344,-25.879,0.000
1606398317.989,-37.598,-26.855,-20.020,-33.203,0.000
1606398317.993,-30.273,-34.668,-18.066,-24.414,0.000
1606398317.997,-18.555,-46.875,-20.996,-14.160,0.000
1606398318.001,-15.137,-32.227,-32.715,-11.230,0.000
1606398318.004,-19.531,-14.160,-40.527,-22.461,0.000
1606398318.008,-28.320,-23.926,-38.086,-27.832,0.000
1606398318.012,-27.344,-28.320,-34.668,-25.391,0.000
1606398318.016,-19.531,-19.531,-33.203,-24.414,0.000
1606398318.020,-21.973,-26.855,-37.598,-19.043,0.000
1606398318.024,-31.738,-33.691,-42.969,-25.391,0.000
1606398318.028,-34.180,-32.715,-33.691,-31.250,0.000
1606398318.032,-28.809,-26.855,-21.973,-25.879,0.000
1606398318.036,-24.414,-25.391,-31.250,-17.090,0.000
1606398318.040,-24.902,-31.250,-40.039,-11.230,0.000
1606398318.043,-31.738,-27.832,-31.250,-17.578,0.000
1606398318.047,-35.645,-20.020,-21.973,-29.297,0.000
1606398318.051,-30.762,-21.484,-20.996,-24.414,0.000
1606398318.055,-25.391,-27.344,-22.461,-9.766,0.000
1606398318.059,-26.367,-24.414,-22.949,-15.625,0.000
1606398318.063,-29.297,-23.926,-28.320,-26.367,0.000
1606398318.067,-33.691,-33.203,-28.320,-26.855,0.000
1606398318.071,-32.715,-29.297,-34.180,-28.320,0.000
1606398318.075,-24.902,-16.602,-36.133,-20.020,0.000
1606398318.079,-21.973,-15.625,-25.391,-20.020,0.000
1606398318.083,-26.367,-28.320,-25.879,-33.203,0.000
1606398318.086,-36.133,-29.785,-24.414,-34.180,0.000
1606398318.090,-36.621,-26.855,-17.578,-26.367,0.000
1606398318.094,-28.809,-22.949,-20.020,-14.160,0.000
1606398318.098,-18.555,-19.531,-24.414,-6.836,0.000
1606398318.102,-20.996,-31.738,-28.320,-12.695,0.000
1606398318.106,-35.645,-30.762,-31.738,-22.949,0.000
1606398318.110,-40.527,-21.973,-42.969,-27.832,0.000
1606398318.114,-31.250,-25.391,-50.781,-25.879,0.000
1606398318.118,-23.438,-24.902,-26.855,-17.090,0.000
1606398318.122,-29.785,-22.949,-12.695,-20.996,0.000
1606398318.126,-35.156,-35.645,-17.578,-33.691,0.000
1606398318.129,-34.180,-39.551,-19.043,-27.344,0.000
1606398318.133,-30.762,-35.156,-22.461,-28.320,0.000
1606398318.137,-25.391,-39.062,-30.273,-30.762,0.000
1606398318.141,-26.367,-36.621,-33.691,-26.855,0.000
1606398318.145,-38.086,-34.180,-30.273,-30.762,0.000
1606398318.149,-42.969,-31.738,-24.902,-29.785,0.000
1606398318.153,-36.621,-23.926,-27.832,-24.902,0.000
1606398318.157,-24.414,-20.508,-30.762,-13.672,0.000
1606398318.161,-24.414,-20.020,-28.320,-15.137,0.000
1606398318.165,-37.598,-25.391,-22.949,-31.250,0.000
1606398318.168,-45.898,-29.297,-17.578,-36.621,0.000
1606398318.172,-39.551,-30.762,-22.461,-31.250,0.000
1606398318.176,-31.250,-28.809,-35.156,-22.949,0.000
1606398318.180,-33.691,-23.438,-37.109,-27.344,0.000
1606398318.184,-41.992,-28.320,-33.203,-36.621,0.000
1606398318.188,-48.340,-37.109,-32.715,-32.227,0.000
1606398318.192,-44.922,-37.598,-25.391,-26.367,0.000
1606398318.196,-40.527,-30.762,-26.855,-28.320,0.000
1606398318.200,-37.598,-34.180,-34.668,-29.785,0.000
1606398318.204,-39.062,-35.156,-36.621,-31.738,0.000
1606398318.208,-41.016,-30.762,-29.297,-38.574,0.000
1606398318.211,-38.574,-31.738,-24.414,-31.250,0.000
1606398318.215,-23.438,-26.855,-32.227,-17.578,0.000
1606398318.219,-17.090,-21.484,-41.016,-18.555,0.000
1606398318.223,-32.715,-25.391,-41.504,-26.367,0.000
1606398318.227,-40.039,-25.879,-39.551,-24.902,0.000
1606398318.231,-38.086,-32.715,-35.156,-21.973,0.000
1606398318.235,-32.715,-40.527,-28.809,-17.090,0.000
1606398318.239,-29.297,-30.273,-28.320,-22.461,0.000
1606398318.243,-28.320,-20.508,-26.367,-36.621,0.000
1606398318.247,-34.668,-28.320,-28.809,-35.156,0.000
1606398318.251,-43.457,-33.203,-35.645,-33.203,0.000
1606398318.254,-34.180,-26.855,-31.738,-35.156,0.000
1606398318.258,-28.320,-27.344,-32.715,-31.738,0.000
1606398318.262,-34.180,-33.691,-35.645,-29.785,0.000
1606398318.266,-41.016,-37.598,-43.457,-37.109,0.000
1606398318.270,-42.480,-35.156,-43.457,-33.691,0.000
1606398318.274,-35.156,-33.203,-29.785,-31.738,0.000
1606398318.278,-33.203,-36.133,-29.297,-33.203,0.000
1606398318.282,-38.086,-31.250,-34.180,-35.645,0.000
1606398318.286,-46.387,-28.809,-31.250,-47.363,0.000
1606398318.290,-48.828,-29.785,-25.879,-40.527,0.000
1606398318.293,-42.480,-36.133,-34.668,-27.832,0.000
1606398318.297,-36.133,-37.109,-41.504,-19.531,0.000
1606398318.301,-40.039,-25.391,-30.273,-23.926,0.000
1606398318.305,-47.852,-29.785,-22.949,-36.621,0.000
1606398318.309,-47.363,-34.180,-24.414,-37.598,0.000
1606398318.313,-40.527,-27.344,-30.762,-21.973,0.000
1606398318.317,-31.250,-27.832,-30.273,-10.254,0.000
1606398318.321,-33.691,-35.156,-29.297,-17.578,0.000
1606398318.325,-39.551,-39.062,-31.738,-23.438,0.000
1606398318.329,-41.504,-34.668,-36.133,-32.227,0.000
1606398318.333,-39.551,-22.461,-36.621,-39.551,0.000
1606398318.336,-31.738,-25.879,-36.133,-30.762,0.000
1606398318.340,-29.785,-38.574,-41.992,-24.414,0.000
1606398318.344,-41.504,-34.668,-35.156,-30.273,0.000
1606398318.348,-46.875,-29.785,-28.809,-33.691,0.000
1606398318.352,-37.109,-33.203,-29.297,-26.367,0.000
1606398318.356,-28.320,-25.391,-28.320,-23.438,0.000
1606398318.360,-25.879,-21.973,-26.855,-27.832,0.000
1606398318.364,-39.062,-28.809,-31.250,-41.016,0.000
1606398318.368,-50.781,-29.297,-32.227,-41.504,0.000
1606398318.372,-45.898,-23.926,-31.738,-34.180,0.000
1606398318.376,-32.715,-28.320,-43.457,-28.809,0.000
1606398318.379,-19.531,-32.715,-33.691,-24.902,0.000
1606398318.383,-22.949,-29.297,-20.996,-31.250,0.000
1606398318.387,-33.203,-27.832,-21.484,-30.273,0.000
1606398318.391,-27.832,-22.461,-24.414,-20.020,0.000
1606398318.395,-16.602,-20.508,-25.879,-8.789,0.000
1606398318.399,-12.207,-22.461,-24.414,-4.395,0.000
1606398318.403,-14.648,-20.020,-28.809,-12.207,0.000
1606398318.407,-19.531,-21.484,-34.180,-23.438,0.000
1606398318.411,-21.973,-27.344,-35.645,-22.461,0.000
1606398318.415,-20.020,-34.180,-41.992,-10.742,0.000
1606398318.418,-13.672,-29.785,-38.086,-8.301,0.000
1606398318.422,-17.578,-22.461,-29.297,-19.043,0.000
1606398318.426,-28.320,-15.625,-28.320,-25.391,0.000
1606398318.430,-26.855,-17.090,-29.297,-24.414,0.000
1606398318.434,-22.461,-22.461,-35.156,-16.113,0.000
1606398318.438,-20.508,-19.531,-31.738,-11.230,0.000
1606398318.442,-26.367,-20.996,-27.832,-22.949,0.000
1606398318.446,-34.180,-34.668,-28.320,-33.691,0.000
1606398318.450,-29.297,-33.203,-28.320,-26.367,0.000
1606398318.454,-20.508,-24.414,-32.715,-18.066,0.000
1606398318.458,-12.207,-31.250,-28.320,-7.812,0.000
1606398318.461,-15.625,-28.809,-23.438,-6.348,0.000
1606398318.465,-25.391,-21.484,-28.320,-14.648,0.000
1606398318.469,-26.367,-24.902,-30.762,-18.555,0.000
1606398318.473,-22.949,-34.180,-22.461,-9.277,0.000
1606398318.477,-21.484,-38.574,-21.973,-2.441,0.000
1606398318.481,-30.762,-26.855,-28.809,-14.160,0.000
1606398318.485,-45.898,-19.531,-24.902,-20.020,0.000
1606398318.489,-52.734,-27.832,-23.926,-21.973,0.000
1606398318.493,-44.434,-32.715,-28.809,-13.672,0.000
1606398318.497,-37.109,-26.855,-30.762,-15.137,0.000
1606398318.501,-35.645,-25.391,-33.691,-25.391,0.000
1606398318.504,-46.387,-34.668,-34.668,-29.297,0.000
1606398318.508,-52.734,-39.062,-33.203,-37.109,0.000
1606398318.512,-37.109,-31.738,-39.062,-35.156,0.000
1606398318.516,-27.832,-31.738,-42.969,-34.668,0.000
1606398318.520,-27.344,-38.086,-31.738,-30.762,0.000
1606398318.524,-30.762,-34.180,-25.391,-28.320,0.000
1606398318.528,-31.738,-21.973,-23.438,-29.785,0.000
1606398318.532,-23.438,-21.973,-25.391,-21.973,0.000
